Time(s),Theta(rad),theta_dot(rad/s),Phi(rad),phi_dot(rad/s),setpoint(A)
0.552,-0.785,-0.001,-3.410,-0.000,0.000
0.562,-0.786,0.000,-3.410,-0.000,0.000
0.572,-0.786,0.001,-3.410,-0.000,0.000
0.582,-0.786,0.000,-3.410,-0.000,0.000
0.592,-0.786,-0.000,-3.410,-0.000,0.000
0.602,-0.786,-0.000,-3.410,-0.000,0.000
0.612,-0.785,-0.000,-3.410,-0.000,0.000
0.622,-0.786,-0.001,-3.410,-0.000,0.000
0.632,-0.786,0.001,-3.410,-0.000,0.000
0.642,-0.786,-0.000,-3.410,-0.000,0.000
0.652,-0.785,-0.001,-3.410,-0.000,0.000
0.662,-0.785,0.000,-3.410,-0.000,0.000
0.672,-0.785,-0.000,-3.410,-0.000,0.000
0.682,-0.786,-0.001,-3.410,-0.000,0.000
0.692,-0.786,-0.000,-3.410,-0.000,0.000
0.702,-0.785,0.000,-3.410,-0.000,0.000
0.712,-0.785,0.001,-3.410,-0.000,0.000
0.722,-0.785,0.000,-3.410,-0.000,0.000
0.732,-0.786,-0.001,-3.410,-0.000,0.000
0.742,-0.785,-0.000,-3.410,-0.000,0.000
0.752,-0.786,-0.001,-3.410,-0.000,0.000
0.762,-0.786,0.000,-3.410,-0.000,0.000
0.772,-0.785,-0.000,-3.410,-0.000,0.000
0.782,-0.785,0.001,-3.410,-0.000,0.000
0.792,-0.785,-0.001,-3.410,-0.000,0.000
0.802,-0.785,0.000,-3.410,-0.000,0.000
0.812,-0.786,-0.000,-3.410,-0.000,0.000
0.822,-0.786,0.001,-3.410,-0.000,0.000
0.832,-0.785,0.001,-3.410,-0.000,0.000
0.842,-0.785,-0.004,-3.410,-0.000,0.000
0.852,-0.786,-0.005,-3.410,-0.000,0.000
0.862,-0.786,0.005,-3.410,-0.000,0.000
0.872,-0.784,-0.015,-3.410,-0.000,0.000
0.882,-0.784,-0.022,-3.410,-0.000,0.000
0.892,-0.786,-0.007,-3.410,-0.000,0.000
0.902,-0.785,-0.012,-3.410,-0.000,0.000
0.912,-0.786,-0.011,-3.410,-0.000,0.000
0.922,-0.788,0.012,-3.410,-0.000,0.000
0.932,-0.788,0.020,-3.410,-0.000,0.000
0.942,-0.788,0.021,-3.410,-0.000,0.000
0.952,-0.788,0.030,-3.410,-0.000,0.000
0.962,-0.786,0.017,-3.410,-0.000,0.000
0.972,-0.784,0.002,-3.410,-0.000,0.000
0.982,-0.784,-0.002,-3.410,-0.000,0.000
0.992,-0.785,0.004,-3.410,-0.000,0.000
1.002,-0.785,0.009,-3.410,-0.000,0.000
1.012,-0.785,0.012,-3.410,-0.000,0.000
1.022,-0.786,0.022,-3.410,-0.000,0.000
1.032,-0.787,0.032,-3.410,-0.000,0.000
1.042,-0.788,0.050,-3.410,-0.000,0.000
1.052,-0.788,0.064,-3.410,-0.000,0.000
1.062,-0.787,0.072,-3.410,-0.000,0.000
1.092,-0.787,0.121,-3.410,-0.000,0.000
1.102,-0.788,0.152,-3.410,-0.000,0.000
1.112,-0.788,0.188,-3.410,-0.000,0.000
1.122,-0.787,0.220,-3.410,-0.000,0.000
1.132,-0.786,0.256,-3.410,-0.000,0.000
1.142,-0.784,0.283,-3.410,-0.000,0.000
1.152,-0.781,0.305,-3.410,-0.000,0.000
1.162,-0.777,0.317,-3.410,-0.000,0.000
1.172,-0.773,0.332,-3.410,-0.000,0.000
1.182,-0.769,0.348,-3.410,-0.000,0.000
1.192,-0.766,0.372,-3.410,-0.000,0.000
1.202,-0.762,0.400,-3.410,-0.000,0.000
1.212,-0.759,0.427,-3.410,-0.000,0.000
1.222,-0.755,0.462,-3.410,-0.000,0.000
1.232,-0.751,0.496,-3.410,-0.000,0.000
1.242,-0.747,0.534,-3.410,-0.000,0.000
1.252,-0.743,0.573,-3.410,-0.000,0.000
1.262,-0.738,0.624,-3.410,-0.000,0.000
1.272,-0.733,0.662,-3.410,-0.000,0.000
1.282,-0.727,0.698,-3.410,-0.000,0.000
1.292,-0.720,0.735,-3.410,-0.000,0.000
1.302,-0.714,0.780,-3.410,-0.000,0.000
1.312,-0.708,0.847,-3.410,-0.000,0.000
1.322,-0.701,0.901,-3.410,-0.000,0.000
1.332,-0.693,0.953,-3.410,-0.000,0.000
1.342,-0.683,1.000,-3.410,-0.000,0.000
1.352,-0.673,1.056,-3.410,-0.000,0.000
1.362,-0.663,1.103,-3.410,-0.000,0.000
1.372,-0.653,1.156,-3.410,-0.000,0.000
1.382,-0.642,1.210,-3.410,-0.000,0.000
1.392,-0.630,1.260,-3.410,-0.000,0.000
1.402,-0.616,1.310,-3.410,-0.000,0.000
1.412,-0.602,1.345,-3.410,-0.000,0.000
1.422,-0.587,1.377,-3.410,-0.000,0.000
1.432,-0.571,1.403,-3.410,-0.000,0.000
1.442,-0.555,1.433,-3.410,-0.000,0.000
1.452,-0.538,1.450,-3.410,-0.000,0.000
1.462,-0.521,1.464,-3.410,-0.000,0.000
1.472,-0.503,1.472,-3.410,-0.000,0.000
1.482,-0.484,1.476,-3.410,-0.000,0.000
1.492,-0.466,1.474,-3.410,-0.000,0.000
1.502,-0.448,1.474,-3.410,-0.000,0.000
1.512,-0.429,1.467,-3.410,-0.000,0.000
1.522,-0.410,1.455,-3.410,-0.000,0.000
1.532,-0.391,1.434,-3.410,-0.000,0.000
1.542,-0.372,1.415,-3.410,-0.000,0.000
1.552,-0.354,1.392,-3.410,-0.000,0.000
1.562,-0.336,1.369,-3.410,-0.000,0.000
1.572,-0.318,1.339,-3.410,-0.000,0.000
1.582,-0.300,1.300,-3.410,-0.000,0.000
1.592,-0.283,1.268,-3.410,-0.000,0.000
1.602,-0.268,1.240,-3.410,-0.000,0.000
1.612,-0.253,1.213,-3.410,-0.000,0.000
1.720,-0.123,0.933,-3.410,-0.000,0.000
1.730,-0.115,0.918,-3.410,-0.000,0.000
1.740,-0.108,0.914,-3.410,-0.000,0.000
1.750,-0.100,0.908,-3.410,-0.000,0.000
1.760,-0.092,0.896,-3.410,-0.000,0.000
1.770,-0.082,0.871,-3.410,0.040,0.995
1.780,-0.071,0.849,-3.146,0.045,0.991
1.790,-0.039,0.495,-3.129,1.167,0.650
1.800,-0.030,0.516,-3.067,4.479,0.811
1.810,-0.025,0.470,-2.971,7.909,0.742
1.820,-0.025,0.464,-2.829,12.096,0.732
1.830,-0.026,0.454,-2.647,16.192,0.741
1.840,-0.025,0.441,-2.423,20.340,0.804
1.850,-0.021,0.414,-2.154,24.702,0.833
1.860,-0.018,0.391,-1.832,29.659,0.843
1.870,-0.016,0.368,-1.468,34.200,0.851
1.880,-0.015,0.347,-1.065,38.270,0.884
1.890,-0.017,0.357,-0.625,42.030,0.952
1.900,-0.018,0.370,-0.147,45.936,0.975
1.910,-0.014,0.339,0.358,48.944,1.016
1.920,-0.012,0.332,0.881,51.162,1.023
1.930,-0.011,0.310,1.431,53.760,1.019
1.940,-0.011,0.292,1.997,55.638,1.080
1.950,-0.007,0.276,2.576,57.177,1.111
1.960,-0.003,0.264,3.186,59.739,1.034
1.970,0.002,0.183,3.799,60.738,1.059
1.980,0.002,0.203,4.422,61.774,0.997
1.990,-0.001,0.159,5.055,62.819,0.963
2.000,-0.009,0.231,5.688,63.150,0.989
2.010,-0.015,0.253,6.346,64.905,1.049
2.020,-0.017,0.316,6.999,65.157,1.094
2.030,-0.017,0.336,7.658,65.633,1.155
2.040,-0.013,0.328,8.321,66.116,1.175
2.050,-0.006,0.293,8.987,66.431,1.177
2.060,0.007,0.193,9.672,67.784,1.131
2.070,0.022,0.083,10.346,67.515,1.083
2.080,0.032,-0.033,11.027,67.962,0.962
2.090,0.036,-0.108,11.702,67.625,0.783
2.100,0.033,-0.167,12.391,68.503,0.693
2.110,0.024,-0.122,13.085,69.051,0.660
2.120,0.012,-0.087,13.770,68.704,0.678
2.130,0.002,-0.038,14.460,68.912,0.706
2.140,0.001,-0.048,15.145,68.625,0.748
2.150,0.007,-0.092,15.847,69.692,0.687
2.160,0.018,-0.217,16.535,69.097,0.580
2.170,0.025,-0.342,17.230,69.358,0.432
2.180,0.028,-0.426,17.917,68.883,0.292
2.190,0.021,-0.463,18.612,69.352,0.168
2.200,0.006,-0.441,19.316,69.978,0.084
2.210,-0.008,-0.394,20.006,69.345,0.068
2.220,-0.020,-0.349,20.701,69.441,0.075
2.230,-0.024,-0.357,21.388,68.957,0.022
2.262,-0.007,-0.737,23.487,69.703,-0.329
2.272,-0.007,-0.850,24.177,69.254,-0.614
2.282,-0.022,-0.884,24.874,69.548,-0.754
2.292,-0.050,-0.840,25.572,69.699,-0.861
2.302,-0.092,-0.555,26.239,67.714,-0.841
2.312,-0.136,-0.237,26.862,64.091,-0.658
2.322,-0.167,-0.029,27.412,58.026,-0.349
2.332,-0.176,0.106,27.910,52.533,-0.220
2.342,-0.171,0.160,28.376,48.596,-0.133
2.352,-0.161,0.152,28.810,45.114,-0.127
2.362,-0.147,0.117,29.219,42.292,-0.153
2.372,-0.137,0.079,29.613,40.379,-0.168
2.382,-0.128,0.053,29.992,38.771,-0.167
2.392,-0.122,0.033,30.350,36.751,-0.195
2.402,-0.117,0.007,30.695,35.286,-0.225
2.412,-0.117,0.006,31.034,34.346,-0.237
2.422,-0.120,0.038,31.356,32.899,-0.222
2.432,-0.128,0.128,31.660,31.252,-0.206
2.442,-0.135,0.209,31.939,29.006,-0.127
2.452,-0.131,0.239,32.201,27.130,-0.038
2.462,-0.126,0.242,32.450,25.636,-0.008
2.472,-0.120,0.253,32.693,24.780,0.012
2.482,-0.115,0.264,32.932,24.188,0.031
2.492,-0.109,0.258,33.166,23.632,0.076
2.502,-0.104,0.260,33.400,23.499,0.090
2.512,-0.101,0.292,33.634,23.454,0.154
2.522,-0.095,0.278,33.875,23.874,0.177
2.532,-0.087,0.271,34.121,24.370,0.195
2.542,-0.080,0.259,34.380,25.357,0.217
2.552,-0.075,0.251,34.649,26.374,0.228
2.562,-0.069,0.216,34.925,27.225,0.255
2.572,-0.063,0.199,35.209,27.968,0.291
2.582,-0.059,0.196,35.509,29.341,0.300
2.592,-0.059,0.204,35.826,30.924,0.346
2.602,-0.055,0.198,36.159,32.474,0.379
2.612,-0.052,0.192,36.507,34.039,0.405
2.622,-0.050,0.200,36.873,35.737,0.425
2.632,-0.049,0.190,37.268,38.279,0.431
2.642,-0.048,0.192,37.694,41.172,0.502
2.652,-0.047,0.213,38.144,43.676,0.533
2.662,-0.046,0.225,38.615,46.005,0.599
2.672,-0.041,0.210,39.117,48.750,0.626
2.682,-0.037,0.198,39.641,51.199,0.644
2.692,-0.031,0.163,40.183,53.246,0.660
2.702,-0.024,0.123,40.756,55.898,0.677
2.712,-0.016,0.070,41.341,57.651,0.655
2.722,-0.015,0.014,41.933,58.658,0.613
2.732,-0.020,-0.008,42.543,60.264,0.653
2.742,-0.028,0.113,43.154,60.802,0.653
2.752,-0.038,0.164,43.786,62.392,0.658
2.762,-0.043,0.230,44.430,63.749,0.801
2.772,-0.043,0.287,45.070,63.869,0.907
2.815,0.006,-0.011,47.720,66.804,0.814
2.825,0.012,-0.085,48.388,66.844,0.728
2.835,0.009,-0.107,49.061,67.080,0.654
2.845,-0.003,-0.037,49.729,66.998,0.622
2.855,-0.020,0.072,50.417,68.132,0.642
2.865,-0.034,0.192,51.094,67.871,0.776
2.875,-0.040,0.262,51.775,67.990,0.891
2.885,-0.035,0.259,52.451,67.785,0.972
2.895,-0.024,0.210,53.135,68.183,0.993
2.905,-0.006,0.129,53.828,68.949,0.984
2.915,0.009,0.019,54.508,68.294,0.890
2.925,0.020,-0.077,55.197,68.735,0.772
2.935,0.018,-0.146,55.879,68.319,0.692
2.945,0.012,-0.125,56.577,69.362,0.613
2.955,-0.001,-0.051,57.268,69.177,0.631
2.965,-0.011,0.010,57.958,69.025,0.654
2.975,-0.015,0.022,58.646,68.907,0.696
2.985,-0.010,-0.014,59.336,68.912,0.714
2.995,0.001,-0.084,60.038,69.808,0.665
3.005,0.011,-0.206,60.724,69.035,0.549
3.015,0.018,-0.320,61.421,69.454,0.408
3.025,0.016,-0.367,62.108,68.954,0.304
3.035,0.006,-0.361,62.810,69.727,0.226
3.045,-0.009,-0.322,63.508,69.806,0.197
3.055,-0.023,-0.268,64.202,69.576,0.220
3.065,-0.028,-0.236,64.892,69.191,0.231
3.075,-0.027,-0.306,65.585,69.257,0.220
3.085,-0.017,-0.414,66.289,70.003,0.151
3.095,-0.006,-0.520,66.978,69.249,0.008
3.105,-0.000,-0.617,67.677,69.725,-0.184
3.115,-0.005,-0.735,68.363,68.966,-0.350
3.125,-0.017,-0.711,69.066,69.854,-0.498
3.135,-0.037,-0.674,69.765,69.829,-0.554
3.145,-0.058,-0.621,70.452,69.096,-0.558
3.155,-0.077,-0.523,71.130,68.208,-0.581
3.165,-0.100,-0.427,71.790,66.783,-0.565
3.175,-0.124,-0.298,72.428,64.803,-0.512
3.185,-0.140,-0.178,73.002,59.852,-0.422
3.195,-0.149,-0.077,73.530,55.127,-0.364
3.205,-0.153,0.015,74.014,50.666,-0.314
3.215,-0.154,0.070,74.459,46.556,-0.236
3.225,-0.153,0.103,74.882,43.744,-0.209
3.235,-0.153,0.142,75.292,41.864,-0.181
3.245,-0.151,0.188,75.680,39.826,-0.101
3.255,-0.144,0.196,76.044,37.581,-0.080
3.265,-0.135,0.187,76.398,36.104,-0.025
3.275,-0.124,0.160,76.747,35.270,-0.029
3.285,-0.115,0.136,77.094,34.910,-0.033
3.295,-0.106,0.080,77.430,34.017,-0.053
3.305,-0.100,0.050,77.759,33.305,-0.066
3.315,-0.095,0.029,78.090,33.135,-0.091
3.347,-0.085,-0.052,79.021,30.468,-0.217
3.357,-0.087,-0.046,79.300,28.799,-0.239
3.367,-0.091,-0.020,79.567,27.385,-0.235
3.377,-0.097,0.023,79.818,25.837,-0.210
3.387,-0.097,0.036,80.041,23.505,-0.219
3.397,-0.099,0.069,80.248,21.627,-0.194
3.407,-0.099,0.071,80.434,19.624,-0.215
3.417,-0.099,0.088,80.602,17.723,-0.205
3.427,-0.101,0.115,80.755,16.075,-0.189
3.437,-0.102,0.146,80.889,14.358,-0.162
3.447,-0.098,0.154,81.006,12.583,-0.145
3.457,-0.092,0.136,81.110,11.129,-0.161
3.467,-0.089,0.125,81.205,10.049,-0.170
3.477,-0.087,0.129,81.291,9.053,-0.165
3.487,-0.086,0.141,81.364,7.899,-0.155
3.497,-0.086,0.161,81.423,6.546,-0.136
3.507,-0.087,0.191,81.467,5.096,-0.107
3.517,-0.088,0.225,81.495,3.591,-0.071
3.527,-0.084,0.243,81.503,1.759,-0.045
3.537,-0.077,0.224,81.497,0.152,-0.052
3.547,-0.069,0.193,81.483,-0.895,-0.071
3.557,-0.060,0.153,81.464,-1.577,-0.097
3.567,-0.056,0.116,81.442,-1.931,-0.136
3.577,-0.054,0.109,81.418,-2.306,-0.141
3.587,-0.053,0.102,81.384,-2.992,-0.154
3.597,-0.052,0.102,81.343,-3.734,-0.160
3.607,-0.054,0.121,81.290,-4.772,-0.153
3.617,-0.055,0.140,81.228,-5.759,-0.135
3.627,-0.050,0.122,81.151,-7.032,-0.151
3.637,-0.045,0.086,81.067,-7.916,-0.192
3.647,-0.042,0.063,80.982,-8.312,-0.221
3.657,-0.044,0.071,80.894,-8.681,-0.220
3.667,-0.047,0.102,80.796,-9.434,-0.197
3.677,-0.050,0.133,80.684,-10.565,-0.175
3.687,-0.048,0.133,80.559,-11.901,-0.174
3.697,-0.047,0.123,80.424,-12.948,-0.198
3.707,-0.047,0.142,80.279,-13.947,-0.181
3.717,-0.050,0.172,80.121,-15.242,-0.159
3.727,-0.046,0.176,79.949,-16.500,-0.147
3.737,-0.042,0.158,79.767,-17.650,-0.166
3.747,-0.041,0.165,79.578,-18.507,-0.156
3.757,-0.038,0.162,79.380,-19.320,-0.155
3.767,-0.037,0.169,79.176,-20.056,-0.148
3.777,-0.036,0.170,78.964,-20.835,-0.149
3.787,-0.033,0.167,78.736,-22.119,-0.151
3.797,-0.031,0.161,78.498,-23.262,-0.161
3.807,-0.027,0.158,78.253,-24.053,-0.152
3.817,-0.025,0.146,78.005,-24.593,-0.165
3.827,-0.024,0.158,77.753,-24.961,-0.147
3.837,-0.025,0.175,77.500,-25.221,-0.124
3.847,-0.024,0.186,77.239,-25.791,-0.110
3.891,-0.014,0.206,75.847,-28.106,-0.065
3.901,-0.011,0.205,75.563,-28.304,-0.052
3.911,-0.008,0.198,75.274,-28.735,-0.054
3.921,-0.005,0.191,74.987,-28.704,-0.054
3.931,0.000,0.173,74.698,-28.804,-0.039
3.941,0.005,0.144,74.418,-28.298,-0.054
3.951,0.010,0.105,74.141,-27.895,-0.075
3.961,0.013,0.081,73.861,-27.958,-0.097
3.971,0.016,0.060,73.576,-28.317,-0.108
3.981,0.017,0.041,73.291,-28.433,-0.149
3.991,0.015,0.044,73.008,-28.393,-0.165
4.001,0.012,0.059,72.717,-28.830,-0.180
4.011,0.009,0.082,72.414,-29.796,-0.166
4.021,0.006,0.103,72.099,-30.933,-0.144
4.031,0.005,0.119,71.778,-31.744,-0.133
4.041,0.004,0.128,71.454,-32.151,-0.106
4.051,0.002,0.155,71.131,-32.233,-0.083
4.061,0.002,0.185,70.801,-32.742,-0.064
4.071,0.001,0.203,70.467,-33.198,-0.021
4.081,0.002,0.231,70.131,-33.498,0.011
4.091,0.005,0.241,69.798,-33.382,0.025
4.101,0.011,0.230,69.469,-33.008,0.039
4.111,0.016,0.200,69.143,-32.738,0.076
4.121,0.024,0.157,68.819,-32.572,0.067
4.131,0.031,0.118,68.508,-31.556,0.019
4.141,0.036,0.080,68.211,-30.309,-0.006
4.151,0.039,0.050,67.923,-29.333,-0.023
4.161,0.040,0.033,67.636,-28.923,-0.051
4.171,0.040,0.023,67.346,-28.973,-0.060
4.181,0.039,0.020,67.054,-29.084,-0.062
4.191,0.038,0.013,66.763,-29.129,-0.075
4.201,0.038,0.007,66.476,-28.830,-0.101
4.211,0.037,0.000,66.184,-29.070,-0.111
4.221,0.034,0.023,65.886,-29.574,-0.119
4.231,0.032,0.036,65.585,-29.926,-0.127
4.241,0.028,0.054,65.282,-30.107,-0.115
4.251,0.025,0.078,64.986,-29.840,-0.073
4.261,0.023,0.094,64.686,-29.900,-0.045
4.271,0.022,0.124,64.385,-30.076,-0.019
4.281,0.020,0.159,64.078,-30.436,0.001
4.291,0.020,0.177,63.776,-30.333,0.052
4.301,0.025,0.177,63.477,-30.029,0.083
4.311,0.032,0.133,63.187,-29.342,0.088
4.321,0.037,0.108,62.906,-28.491,0.079
4.331,0.043,0.080,62.630,-27.932,0.060
4.341,0.046,0.050,62.366,-26.931,0.035
4.351,0.049,0.023,62.112,-25.844,0.016
4.361,0.049,0.008,61.868,-24.895,-0.001
4.371,0.048,0.008,61.627,-24.359,0.012
4.381,0.048,0.005,61.389,-24.024,-0.011
4.391,0.047,0.004,61.149,-24.011,-0.000
4.493,0.035,0.016,58.861,-22.486,-0.035
4.503,0.033,0.033,58.640,-22.232,-0.018
4.513,0.033,0.037,58.421,-22.006,-0.017
4.523,0.032,0.047,58.202,-21.935,0.010
4.533,0.031,0.056,57.986,-21.703,0.019
4.543,0.031,0.069,57.772,-21.553,0.036
4.553,0.033,0.067,57.560,-21.273,0.064
4.563,0.034,0.069,57.355,-20.770,0.057
4.573,0.036,0.072,57.157,-20.112,0.075
4.583,0.039,0.050,56.964,-19.568,0.100
4.593,0.042,0.026,56.778,-18.947,0.085
4.603,0.044,0.021,56.597,-18.358,0.086
4.613,0.049,-0.011,56.423,-17.754,0.064
4.623,0.052,-0.046,56.261,-16.707,0.022
4.633,0.050,-0.060,56.107,-15.822,0.003
4.643,0.049,-0.059,55.960,-15.063,-0.003
4.653,0.049,-0.076,55.818,-14.505,-0.011
4.663,0.047,-0.076,55.682,-13.912,-0.010
4.673,0.043,-0.061,55.550,-13.404,-0.036
4.683,0.040,-0.050,55.418,-13.313,-0.014
4.693,0.041,-0.045,55.286,-13.235,0.013
4.703,0.039,-0.063,55.157,-13.003,-0.027
4.713,0.035,-0.031,55.029,-12.846,0.005
4.723,0.033,-0.021,54.897,-13.102,-0.002
4.733,0.034,-0.025,54.766,-13.086,0.020
4.743,0.036,-0.025,54.640,-12.774,-0.007
4.753,0.036,-0.036,54.517,-12.490,-0.014
4.763,0.032,-0.012,54.395,-12.265,0.013
4.773,0.032,-0.007,54.274,-12.169,0.031
4.783,0.035,-0.025,54.155,-11.983,0.014
4.793,0.034,-0.038,54.043,-11.484,0.006
4.803,0.034,-0.034,53.931,-11.269,0.015
4.813,0.033,-0.028,53.822,-11.016,0.011
4.823,0.033,-0.032,53.713,-10.908,0.011
4.833,0.037,-0.059,53.609,-10.589,-0.009
4.843,0.035,-0.067,53.511,-10.101,-0.031
4.853,0.034,-0.060,53.415,-9.732,-0.029
4.863,0.031,-0.053,53.322,-9.483,-0.029
4.873,0.028,-0.037,53.227,-9.474,-0.019
4.883,0.028,-0.034,53.131,-9.577,-0.005
4.893,0.028,-0.041,53.038,-9.344,-0.013
4.903,0.027,-0.036,52.950,-8.978,-0.015
4.913,0.025,-0.030,52.861,-8.920,-0.007
4.923,0.026,-0.029,52.776,-8.679,-0.002
4.933,0.028,-0.040,52.692,-8.466,-0.009
4.943,0.029,-0.058,52.616,-7.910,-0.014
4.953,0.030,-0.070,52.544,-7.442,-0.021
4.963,0.029,-0.074,52.478,-6.878,-0.039
4.973,0.025,-0.062,52.413,-6.584,-0.039
4.983,0.023,-0.044,52.347,-6.620,-0.031
4.993,0.021,-0.036,52.281,-6.628,-0.020
5.037,0.023,-0.052,52.033,-5.921,-0.026
5.047,0.024,-0.075,51.978,-5.630,-0.053
5.057,0.024,-0.082,51.929,-5.125,-0.060
5.067,0.023,-0.080,51.884,-4.725,-0.059
5.077,0.020,-0.080,51.840,-4.464,-0.069
5.087,0.016,-0.061,51.797,-4.377,-0.060
5.097,0.014,-0.033,51.754,-4.320,-0.028
5.107,0.012,-0.026,51.707,-4.586,-0.025
5.117,0.011,-0.021,51.659,-4.725,-0.028
5.127,0.009,0.001,51.612,-4.745,-0.002
5.137,0.007,0.022,51.562,-4.854,0.023
5.147,0.008,0.033,51.511,-5.068,0.040
5.157,0.010,0.025,51.457,-5.246,0.037
5.167,0.013,0.009,51.406,-5.149,0.032
5.177,0.018,-0.017,51.360,-4.810,0.019
5.187,0.022,-0.062,51.322,-4.160,-0.028
5.197,0.024,-0.086,51.291,-3.458,-0.047
5.207,0.024,-0.104,51.267,-2.712,-0.072
5.217,0.021,-0.101,51.246,-2.310,-0.074
5.227,0.016,-0.077,51.228,-1.946,-0.062
5.237,0.009,-0.032,51.209,-1.952,-0.025
5.247,0.004,0.004,51.181,-2.543,0.000
5.257,0.001,0.034,51.146,-3.148,0.029
5.267,0.002,0.047,51.106,-3.709,0.047
5.277,0.004,0.046,51.066,-3.922,0.057
5.287,0.006,0.039,51.026,-3.966,0.053
5.297,0.007,0.043,50.988,-3.853,0.070
5.307,0.010,0.037,50.950,-3.790,0.077
5.317,0.014,0.011,50.917,-3.513,0.056
5.327,0.019,-0.026,50.886,-3.216,0.028
5.337,0.025,-0.079,50.862,-2.683,-0.023
5.347,0.028,-0.119,50.850,-1.712,-0.064
5.357,0.028,-0.147,50.846,-0.801,-0.099
5.367,0.026,-0.165,50.849,-0.062,-0.129
5.377,0.022,-0.161,50.855,0.388,-0.141
5.387,0.017,-0.144,50.861,0.538,-0.141
5.397,0.012,-0.131,50.866,0.461,-0.147
5.407,0.007,-0.110,50.867,0.230,-0.140
5.417,0.004,-0.097,50.865,-0.051,-0.137
5.427,0.002,-0.092,50.861,-0.298,-0.144
5.437,0.001,-0.088,50.853,-0.585,-0.146
5.447,0.001,-0.092,50.847,-0.604,-0.155
5.457,-0.000,-0.093,50.840,-0.713,-0.165
5.467,-0.003,-0.087,50.833,-0.647,-0.165
5.477,-0.004,-0.082,50.822,-0.983,-0.169
5.487,-0.005,-0.073,50.812,-0.992,-0.161
5.497,-0.007,-0.068,50.799,-1.226,-0.162
5.507,-0.007,-0.064,50.782,-1.482,-0.164
5.517,-0.008,-0.064,50.764,-1.696,-0.170
5.527,-0.010,-0.057,50.747,-1.715,-0.167
5.537,-0.011,-0.048,50.724,-2.106,-0.164
5.547,-0.013,-0.031,50.700,-2.287,-0.149
5.579,-0.021,0.067,50.542,-4.723,-0.066
5.589,-0.022,0.084,50.487,-5.253,-0.033
5.599,-0.021,0.100,50.426,-5.819,-0.009
5.609,-0.019,0.111,50.361,-6.231,0.010
5.619,-0.017,0.114,50.295,-6.504,0.029
5.629,-0.009,0.086,50.229,-6.542,0.023
5.639,-0.000,0.025,50.172,-5.990,-0.019
5.649,0.004,-0.009,50.124,-5.193,-0.053
5.659,0.006,-0.025,50.076,-4.927,-0.065
5.669,0.004,-0.024,50.029,-4.786,-0.072
5.679,0.002,-0.010,49.979,-4.918,-0.056
5.689,0.001,-0.006,49.928,-5.066,-0.058
5.699,-0.001,0.007,49.872,-5.395,-0.053
5.709,-0.004,0.029,49.813,-5.788,-0.040
5.719,-0.004,0.044,49.748,-6.249,-0.026
5.729,-0.001,0.017,49.684,-6.354,-0.035
5.739,0.004,-0.003,49.624,-6.080,-0.058
5.749,0.005,-0.029,49.568,-5.811,-0.070
5.759,0.003,-0.018,49.510,-5.769,-0.086
5.769,-0.001,0.000,49.448,-6.041,-0.064
5.779,-0.003,0.030,49.382,-6.460,-0.043
5.789,-0.003,0.039,49.311,-6.885,-0.028
5.799,-0.005,0.056,49.235,-7.330,-0.020
5.809,-0.003,0.060,49.158,-7.560,0.001
5.819,0.002,0.026,49.082,-7.633,-0.030
5.829,0.007,-0.008,49.011,-7.275,-0.052
5.839,0.009,-0.030,48.943,-6.950,-0.070
5.849,0.007,-0.031,48.875,-6.842,-0.086
5.859,0.005,-0.016,48.804,-7.035,-0.072
5.869,0.001,0.011,48.727,-7.481,-0.067
5.879,-0.001,0.031,48.643,-8.070,-0.042
5.889,0.000,0.029,48.556,-8.469,-0.042
5.899,0.005,-0.002,48.472,-8.422,-0.054
5.909,0.010,-0.048,48.393,-8.126,-0.110
5.919,0.008,-0.051,48.317,-7.741,-0.128
5.929,0.005,-0.027,48.237,-7.926,-0.115
5.939,0.001,-0.012,48.149,-8.469,-0.095
5.949,-0.004,0.022,48.056,-9.038,-0.073
5.959,-0.005,0.050,47.955,-9.734,-0.045
5.969,-0.001,0.028,47.854,-9.999,-0.056
5.979,-0.002,0.038,47.754,-10.001,-0.075
5.989,-0.003,0.050,47.647,-10.444,-0.045
5.999,-0.003,0.053,47.539,-10.714,-0.026
6.009,-0.002,0.065,47.424,-11.219,-0.032
6.019,0.003,0.046,47.311,-11.309,-0.024
6.029,0.005,0.029,47.197,-11.364,-0.044
6.039,0.005,0.032,47.084,-11.298,-0.046
6.049,0.003,0.046,46.968,-11.490,-0.036
6.059,0.002,0.054,46.847,-11.906,-0.014
6.069,0.006,0.042,46.727,-11.976,-0.021
6.079,0.006,0.052,46.606,-12.067,-0.038
6.105,0.007,0.059,46.360,-12.188,-0.008
6.115,0.010,0.038,46.240,-12.106,-0.010
6.125,0.011,0.035,46.123,-11.835,-0.016
6.135,0.012,0.027,46.007,-11.688,-0.014
6.145,0.013,0.018,45.892,-11.513,-0.019
6.155,0.014,0.007,45.778,-11.458,-0.029
6.165,0.015,-0.001,45.666,-11.312,-0.045
6.175,0.015,-0.005,45.556,-11.109,-0.041
6.185,0.015,-0.005,45.446,-10.986,-0.046
6.195,0.014,-0.001,45.338,-10.924,-0.048
6.205,0.012,0.007,45.229,-10.903,-0.057
6.215,0.012,0.004,45.117,-11.046,-0.046
6.225,0.014,-0.007,45.009,-10.944,-0.051
6.235,0.011,0.002,44.902,-10.732,-0.059
6.245,0.009,0.012,44.796,-10.657,-0.052
6.255,0.006,0.048,44.686,-10.918,-0.031
6.265,0.007,0.054,44.572,-11.178,-0.006
6.275,0.012,0.017,44.459,-11.321,-0.014
6.285,0.013,0.004,44.351,-10.958,-0.035
6.295,0.013,-0.001,44.246,-10.658,-0.034
6.305,0.011,0.018,44.140,-10.632,-0.049
6.315,0.011,0.017,44.031,-10.753,-0.029
6.325,0.015,-0.001,43.923,-10.798,-0.030
6.335,0.014,-0.009,43.820,-10.503,-0.046
6.345,0.014,-0.003,43.716,-10.400,-0.057
6.355,0.012,-0.002,43.614,-10.269,-0.062
6.365,0.009,0.022,43.510,-10.377,-0.045
6.375,0.012,0.015,43.403,-10.594,-0.026
6.385,0.015,-0.003,43.298,-10.511,-0.033
6.395,0.016,-0.022,43.197,-10.250,-0.039
6.405,0.016,-0.023,43.098,-9.989,-0.058
6.415,0.013,-0.009,43.001,-9.798,-0.064
6.425,0.011,-0.001,42.902,-9.911,-0.053
6.435,0.013,-0.014,42.799,-10.135,-0.038
6.445,0.014,-0.023,42.698,-10.124,-0.061
6.455,0.014,-0.024,42.597,-10.100,-0.066
6.465,0.011,-0.017,42.496,-10.087,-0.083
6.475,0.009,0.006,42.393,-10.267,-0.069
6.485,0.009,0.006,42.284,-10.658,-0.055
6.495,0.012,-0.013,42.178,-10.637,-0.067
6.505,0.011,-0.011,42.070,-10.733,-0.079
6.515,0.008,0.003,41.961,-10.839,-0.074
6.525,0.005,0.030,41.850,-11.027,-0.076
6.535,0.005,0.042,41.735,-11.346,-0.033
6.545,0.009,0.031,41.617,-11.654,-0.024
6.555,0.009,0.021,41.501,-11.634,-0.044
6.565,0.008,0.030,41.385,-11.623,-0.055
6.575,0.007,0.049,41.265,-11.852,-0.034
6.585,0.008,0.047,41.143,-12.105,-0.019
6.595,0.011,0.031,41.016,-12.473,-0.023
6.635,0.016,0.003,40.520,-12.447,-0.036
6.645,0.015,0.010,40.401,-12.065,-0.031
6.655,0.016,0.002,40.281,-12.051,-0.029
6.665,0.015,0.004,40.164,-11.816,-0.043
6.675,0.014,0.011,40.046,-11.758,-0.035
6.685,0.014,0.013,39.929,-11.745,-0.026
6.695,0.013,0.024,39.813,-11.660,-0.020
6.705,0.013,0.026,39.696,-11.684,-0.026
6.715,0.014,0.017,39.579,-11.695,-0.025
6.725,0.015,0.020,39.463,-11.625,-0.011
6.735,0.017,0.012,39.347,-11.597,-0.005
6.745,0.018,-0.002,39.235,-11.330,-0.020
6.755,0.017,-0.002,39.125,-11.114,-0.032
6.765,0.016,0.007,39.015,-11.041,-0.026
6.775,0.015,0.016,38.907,-10.914,-0.016
6.785,0.018,0.006,38.797,-10.978,-0.011
6.795,0.019,-0.013,38.691,-10.716,-0.008
6.805,0.019,-0.014,38.588,-10.399,-0.025
6.815,0.019,-0.021,38.489,-10.063,-0.041
6.825,0.016,-0.000,38.392,-9.821,-0.029
6.835,0.017,-0.002,38.292,-9.944,-0.018
6.845,0.020,-0.026,38.194,-9.888,-0.018
6.855,0.019,-0.034,38.101,-9.482,-0.057
6.865,0.015,-0.015,38.009,-9.297,-0.059
6.875,0.011,0.010,37.915,-9.387,-0.034
6.885,0.007,0.050,37.815,-9.779,-0.018
6.895,0.009,0.056,37.709,-10.341,0.028
6.905,0.015,0.023,37.603,-10.480,0.021
6.915,0.017,-0.002,37.505,-10.063,-0.012
6.925,0.019,-0.020,37.410,-9.669,-0.016
6.935,0.017,-0.024,37.321,-9.180,-0.036
6.945,0.016,-0.002,37.232,-8.991,-0.029
6.955,0.017,-0.008,37.140,-9.107,-0.020
6.965,0.019,-0.030,37.052,-8.918,-0.025
6.975,0.019,-0.035,36.967,-8.648,-0.041
6.985,0.016,-0.025,36.885,-8.353,-0.051
6.995,0.014,-0.010,36.799,-8.511,-0.041
7.005,0.011,0.007,36.714,-8.483,-0.032
7.015,0.013,0.002,36.623,-8.867,-0.012
7.025,0.016,-0.013,36.535,-8.860,-0.020
7.035,0.019,-0.043,36.449,-8.656,-0.045
7.045,0.020,-0.057,36.368,-8.281,-0.070
7.055,0.017,-0.058,36.289,-8.068,-0.084
7.065,0.012,-0.022,36.210,-7.910,-0.097
7.075,0.009,0.001,36.124,-8.390,-0.054
7.085,0.009,0.007,36.032,-8.908,-0.037
7.095,0.013,-0.012,35.940,-9.105,-0.035
7.105,0.015,-0.032,35.852,-8.941,-0.061
7.115,0.013,-0.028,35.767,-8.656,-0.073
7.125,0.011,-0.022,35.680,-8.663,-0.076
7.135,0.009,-0.006,35.590,-8.896,-0.064
7.164,0.011,-0.004,35.306,-9.511,-0.038
7.174,0.010,-0.002,35.213,-9.386,-0.057
7.184,0.009,0.008,35.117,-9.474,-0.056
7.194,0.006,0.035,35.021,-9.571,-0.050
7.204,0.005,0.054,34.918,-10.069,-0.018
7.214,0.008,0.044,34.811,-10.462,0.006
7.224,0.010,0.035,34.703,-10.728,0.010
7.234,0.011,0.025,34.597,-10.603,-0.009
7.244,0.013,0.020,34.494,-10.442,-0.012
7.254,0.012,0.020,34.390,-10.403,-0.014
7.264,0.015,0.013,34.286,-10.429,-0.005
7.274,0.017,-0.014,34.186,-10.143,-0.032
7.284,0.014,0.002,34.089,-9.828,-0.037
7.294,0.014,-0.002,33.990,-9.842,-0.026
7.304,0.016,-0.004,33.892,-9.832,-0.026
7.314,0.015,-0.012,33.798,-9.562,-0.045
7.324,0.015,-0.000,33.703,-9.480,-0.041
7.334,0.013,0.007,33.610,-9.394,-0.023
7.344,0.012,0.014,33.513,-9.605,-0.017
7.354,0.015,0.007,33.417,-9.589,-0.005
7.364,0.017,-0.008,33.324,-9.413,-0.019
7.374,0.017,-0.016,33.233,-9.192,-0.044
7.384,0.018,-0.031,33.145,-8.923,-0.042
7.394,0.019,-0.047,33.061,-8.595,-0.063
7.404,0.018,-0.045,32.978,-8.416,-0.062
7.414,0.015,-0.036,32.896,-8.222,-0.073
7.424,0.012,-0.021,32.813,-8.293,-0.069
7.434,0.010,-0.003,32.728,-8.436,-0.048
7.444,0.008,0.013,32.638,-8.799,-0.034
7.454,0.010,0.001,32.549,-8.859,-0.040
7.464,0.013,-0.019,32.462,-8.736,-0.032
7.474,0.013,-0.029,32.379,-8.456,-0.067
7.484,0.011,-0.017,32.300,-8.089,-0.066
7.494,0.010,-0.009,32.220,-8.035,-0.053
7.504,0.008,0.011,32.136,-8.308,-0.050
7.514,0.007,0.018,32.052,-8.339,-0.034
7.524,0.010,0.007,31.967,-8.485,-0.017
7.534,0.014,-0.021,31.883,-8.371,-0.033
7.544,0.011,-0.031,31.807,-7.908,-0.077
7.554,0.009,-0.008,31.732,-7.592,-0.058
7.564,0.007,0.006,31.651,-7.928,-0.046
7.574,0.005,0.029,31.569,-8.110,-0.025
7.584,0.004,0.041,31.483,-8.459,-0.014
7.594,0.009,0.015,31.394,-8.749,0.007
7.604,0.012,-0.006,31.310,-8.495,-0.018
7.614,0.011,-0.005,31.232,-8.042,-0.044
7.624,0.012,-0.003,31.152,-8.027,-0.036
7.634,0.011,-0.000,31.074,-7.863,-0.028
7.644,0.008,0.021,30.995,-7.879,-0.027
7.654,0.007,0.037,30.912,-8.158,0.001
7.664,0.011,0.022,30.827,-8.420,0.009
7.674,0.014,0.000,30.745,-8.278,-0.001
7.785,0.009,-0.026,29.944,-6.743,-0.092
7.795,0.004,0.008,29.869,-7.293,-0.055
7.805,0.004,0.029,29.788,-7.824,-0.027
7.815,0.008,0.001,29.700,-8.460,-0.030
7.825,0.013,-0.034,29.620,-8.163,-0.051
7.835,0.013,-0.052,29.544,-7.733,-0.096
7.845,0.011,-0.043,29.470,-7.537,-0.091
7.855,0.008,-0.027,29.394,-7.573,-0.090
7.865,0.003,0.017,29.314,-7.843,-0.087
7.875,-0.002,0.051,29.228,-8.393,-0.050
7.885,0.001,0.057,29.133,-9.138,-0.012
7.895,0.006,0.036,29.036,-9.463,-0.001
7.905,0.007,0.024,28.945,-9.240,-0.027
7.915,0.007,0.024,28.855,-9.087,-0.032
7.925,0.007,0.027,28.763,-9.191,-0.023
7.935,0.006,0.039,28.669,-9.325,-0.019
7.945,0.009,0.036,28.571,-9.605,0.002
7.955,0.013,0.005,28.473,-9.720,-0.006
7.965,0.012,0.002,28.382,-9.301,-0.028
7.975,0.012,0.003,28.289,-9.310,-0.031
7.985,0.011,0.011,28.196,-9.342,-0.028
7.995,0.011,0.019,28.101,-9.429,-0.024
8.005,0.013,0.006,28.003,-9.663,-0.018
8.015,0.016,-0.022,27.910,-9.434,-0.040
8.025,0.015,-0.022,27.820,-9.126,-0.056
8.035,0.014,-0.016,27.732,-8.923,-0.050
8.045,0.014,-0.016,27.643,-8.932,-0.047
8.055,0.014,-0.029,27.556,-8.779,-0.046
8.065,0.013,-0.026,27.470,-8.621,-0.063
8.075,0.011,-0.019,27.383,-8.681,-0.056
8.085,0.009,-0.003,27.296,-8.673,-0.058
8.095,0.008,0.010,27.206,-8.949,-0.049
8.105,0.010,0.002,27.114,-9.094,-0.036
8.115,0.011,-0.008,27.023,-9.088,-0.044
8.125,0.012,-0.012,26.935,-8.885,-0.059
8.135,0.012,-0.020,26.850,-8.663,-0.064
8.145,0.012,-0.024,26.765,-8.537,-0.062
8.155,0.009,-0.010,26.681,-8.470,-0.075
8.165,0.006,0.014,26.593,-8.628,-0.053
8.175,0.005,0.027,26.502,-8.984,-0.029
8.185,0.004,0.042,26.407,-9.285,-0.012
8.195,0.005,0.041,26.312,-9.463,-0.007
8.205,0.010,0.021,26.218,-9.417,0.001
8.215,0.012,0.002,26.129,-9.045,-0.024
8.225,0.011,0.007,26.045,-8.613,-0.041
8.235,0.008,0.028,25.961,-8.522,-0.028
8.245,0.006,0.049,25.871,-8.798,0.003
8.255,0.006,0.064,25.779,-9.067,0.034
8.265,0.012,0.026,25.687,-9.186,0.027
8.275,0.019,-0.028,25.600,-8.841,0.008
8.285,0.020,-0.053,25.527,-7.855,-0.059
8.295,0.018,-0.046,25.454,-7.423,-0.063
8.331,0.008,0.030,25.143,-8.332,-0.006
8.341,0.013,-0.009,25.060,-8.329,-0.012
8.351,0.016,-0.028,24.985,-7.762,-0.039
8.361,0.013,-0.022,24.911,-7.570,-0.063
8.371,0.010,-0.005,24.834,-7.612,-0.038
8.381,0.009,0.008,24.755,-7.803,-0.023
8.391,0.007,0.027,24.673,-8.074,-0.017
8.401,0.007,0.029,24.590,-8.237,0.005
8.411,0.012,0.005,24.510,-8.116,0.005
8.421,0.016,-0.031,24.434,-7.742,-0.039
8.431,0.016,-0.042,24.365,-7.183,-0.065
8.441,0.015,-0.041,24.296,-7.021,-0.071
8.451,0.013,-0.038,24.227,-6.940,-0.074
8.461,0.009,-0.017,24.155,-7.096,-0.060
8.471,0.006,0.009,24.079,-7.451,-0.037
8.481,0.006,0.011,24.000,-7.703,-0.018
8.491,0.011,-0.011,23.921,-7.860,-0.037
8.501,0.014,-0.041,23.849,-7.426,-0.053
8.511,0.014,-0.050,23.778,-7.205,-0.093
8.521,0.012,-0.042,23.707,-7.130,-0.094
8.531,0.007,-0.020,23.633,-7.283,-0.082
8.541,0.001,0.020,23.553,-7.799,-0.052
8.551,0.000,0.046,23.463,-8.554,-0.010
8.561,0.004,0.037,23.373,-8.864,-0.016
8.571,0.009,0.000,23.285,-8.860,-0.030
8.581,0.010,-0.012,23.203,-8.425,-0.054
8.591,0.008,-0.001,23.119,-8.403,-0.064
8.601,0.005,0.023,23.030,-8.709,-0.033
8.611,0.003,0.051,22.938,-9.062,-0.009
8.621,0.004,0.056,22.842,-9.415,0.004
8.631,0.009,0.027,22.747,-9.429,0.001
8.641,0.013,0.001,22.658,-9.101,-0.037
8.651,0.014,-0.013,22.571,-8.811,-0.044
8.661,0.014,-0.019,22.485,-8.664,-0.043
8.671,0.013,-0.014,22.399,-8.640,-0.055
8.681,0.012,-0.015,22.311,-8.785,-0.042
8.691,0.015,-0.028,22.224,-8.733,-0.066
8.701,0.016,-0.049,22.138,-8.612,-0.081
8.711,0.011,-0.030,22.054,-8.443,-0.093
8.721,0.009,-0.010,21.962,-8.947,-0.067
8.731,0.006,0.011,21.868,-9.249,-0.056
8.741,0.005,0.026,21.769,-9.676,-0.034
8.751,0.008,0.014,21.670,-9.877,-0.041
8.761,0.008,0.008,21.573,-9.761,-0.054
8.771,0.006,0.020,21.476,-9.721,-0.046
8.781,0.006,0.027,21.376,-9.910,-0.028
8.791,0.008,0.014,21.276,-9.981,-0.025
8.801,0.010,0.016,21.179,-9.744,-0.034
8.811,0.011,-0.003,21.085,-9.537,-0.043
8.821,0.011,-0.003,20.992,-9.389,-0.058
8.831,0.007,0.027,20.898,-9.392,-0.035
8.871,0.010,0.023,20.505,-9.776,-0.006
8.881,0.012,0.013,20.410,-9.600,-0.017
8.891,0.011,0.015,20.316,-9.488,-0.021
8.901,0.011,0.017,20.221,-9.501,-0.018
8.911,0.013,0.007,20.129,-9.281,-0.013
8.921,0.014,-0.003,20.040,-9.022,-0.027
8.931,0.017,-0.024,19.951,-8.942,-0.025
8.941,0.020,-0.053,19.871,-8.324,-0.063
8.951,0.018,-0.058,19.796,-7.757,-0.087
8.961,0.016,-0.048,19.718,-7.775,-0.077
8.971,0.014,-0.045,19.642,-7.682,-0.076
8.981,0.012,-0.034,19.566,-7.648,-0.082
8.991,0.008,-0.012,19.485,-7.891,-0.061
9.001,0.009,-0.003,19.402,-8.182,-0.053
9.011,0.010,-0.023,19.322,-8.045,-0.061
9.021,0.009,-0.017,19.243,-7.971,-0.080
9.031,0.005,0.001,19.161,-8.105,-0.059
9.041,0.002,0.034,19.076,-8.374,-0.033
9.051,-0.001,0.057,18.984,-8.955,0.004
9.061,0.001,0.070,18.887,-9.451,0.015
9.071,0.006,0.042,18.793,-9.395,0.023
9.081,0.011,0.017,18.704,-9.089,-0.003
9.091,0.011,0.009,18.620,-8.629,-0.026
9.101,0.011,0.010,18.537,-8.423,-0.024
9.111,0.010,0.017,18.451,-8.481,-0.007
9.121,0.008,0.034,18.365,-8.582,-0.000
9.131,0.009,0.040,18.278,-8.691,0.010
9.141,0.013,0.024,18.190,-8.724,0.009
9.151,0.014,0.007,18.109,-8.329,-0.003
9.161,0.014,0.005,18.029,-8.090,-0.011
9.171,0.014,-0.001,17.948,-8.095,-0.010
9.181,0.012,0.014,17.870,-7.934,-0.007
9.191,0.010,0.036,17.787,-8.171,0.015
9.201,0.013,0.013,17.702,-8.375,0.014
9.211,0.018,-0.016,17.623,-8.085,0.000
9.221,0.021,-0.050,17.549,-7.628,-0.047
9.231,0.018,-0.055,17.479,-7.167,-0.065
9.241,0.015,-0.035,17.407,-7.197,-0.059
9.251,0.012,-0.015,17.331,-7.510,-0.050
9.261,0.009,0.007,17.249,-7.926,-0.030
9.271,0.008,0.023,17.164,-8.290,-0.010
9.281,0.013,-0.006,17.079,-8.443,-0.012
9.291,0.016,-0.036,17.000,-8.133,-0.051
9.301,0.015,-0.035,16.923,-7.823,-0.068
9.311,0.011,-0.019,16.845,-7.797,-0.051
9.321,0.008,-0.001,16.763,-8.066,-0.039
9.331,0.005,0.035,16.674,-8.599,-0.028
9.341,0.005,0.039,16.580,-9.125,0.004
9.351,0.010,0.024,16.488,-9.184,0.003
9.361,0.015,-0.022,16.404,-8.685,-0.036
9.371,0.014,-0.013,16.322,-8.337,-0.061
9.381,0.012,-0.010,16.238,-8.378,-0.035
9.410,0.011,0.017,15.968,-9.170,-0.013
9.420,0.015,-0.020,15.878,-9.065,-0.025
9.430,0.015,-0.025,15.792,-8.774,-0.061
9.440,0.016,-0.035,15.707,-8.549,-0.073
9.450,0.014,-0.035,15.623,-8.474,-0.075
9.460,0.009,-0.001,15.535,-8.654,-0.063
9.470,0.005,0.033,15.440,-9.225,-0.030
9.480,0.007,0.029,15.341,-9.698,-0.011
9.490,0.006,0.034,15.242,-9.827,-0.016
9.500,0.009,0.030,15.144,-9.796,-0.010
9.510,0.013,0.001,15.050,-9.529,-0.019
9.520,0.015,-0.011,14.961,-9.108,-0.034
9.530,0.016,-0.019,14.874,-8.866,-0.053
9.540,0.017,-0.042,14.792,-8.426,-0.063
9.550,0.014,-0.035,14.712,-8.126,-0.073
9.560,0.011,-0.013,14.629,-8.257,-0.062
9.570,0.012,-0.019,14.544,-8.403,-0.055
9.580,0.012,-0.020,14.460,-8.375,-0.065
9.590,0.009,-0.010,14.377,-8.364,-0.059
9.600,0.008,0.004,14.291,-8.540,-0.048
9.610,0.009,-0.002,14.203,-8.677,-0.039
9.620,0.010,-0.012,14.118,-8.593,-0.053
9.630,0.009,-0.012,14.035,-8.361,-0.062
9.640,0.008,-0.002,13.949,-8.514,-0.047
9.650,0.006,0.013,13.864,-8.514,-0.038
9.660,0.006,0.023,13.776,-8.718,-0.029
9.670,0.007,0.026,13.686,-8.889,-0.025
9.680,0.011,0.006,13.601,-8.613,-0.028
9.690,0.012,-0.013,13.521,-8.214,-0.051
9.700,0.010,-0.007,13.441,-8.081,-0.053
9.710,0.008,0.011,13.361,-8.011,-0.034
9.720,0.006,0.024,13.278,-8.218,-0.013
9.730,0.005,0.043,13.193,-8.441,0.004
9.740,0.009,0.028,13.106,-8.567,0.012
9.750,0.013,-0.005,13.026,-8.225,-0.007
9.760,0.014,-0.014,12.949,-7.829,-0.040
9.770,0.011,0.004,12.873,-7.722,-0.034
9.780,0.009,0.021,12.793,-7.892,-0.006
9.790,0.008,0.039,12.711,-8.127,0.009
9.800,0.007,0.051,12.624,-8.487,0.027
9.810,0.011,0.040,12.539,-8.508,0.024
9.820,0.016,-0.000,12.459,-8.128,0.009
9.830,0.017,-0.015,12.384,-7.746,-0.019
9.840,0.017,-0.026,12.312,-7.337,-0.022
9.850,0.017,-0.024,12.243,-7.099,-0.030
9.860,0.016,-0.023,12.172,-7.096,-0.029
9.870,0.013,-0.010,12.102,-7.044,-0.027
9.880,0.012,-0.002,12.028,-7.282,-0.011
9.890,0.015,-0.022,11.957,-7.130,-0.025
9.900,0.018,-0.049,11.890,-6.851,-0.056
9.910,0.017,-0.064,11.829,-6.374,-0.074
9.920,0.013,-0.039,11.766,-6.316,-0.078
9.961,0.003,0.052,11.469,-7.934,0.015
9.971,0.008,0.026,11.388,-8.016,0.016
9.981,0.014,-0.012,11.314,-7.606,-0.004
9.991,0.016,-0.033,11.245,-7.163,-0.049
10.001,0.013,-0.017,11.176,-6.962,-0.051
10.011,0.010,-0.004,11.104,-7.151,-0.030
10.021,0.008,0.022,11.026,-7.550,-0.011
10.031,0.008,0.025,10.945,-7.935,0.005
10.041,0.011,0.012,10.865,-7.967,-0.007
10.051,0.015,-0.022,10.787,-7.871,-0.021
10.061,0.018,-0.050,10.717,-7.277,-0.054
10.071,0.016,-0.051,10.650,-6.925,-0.082
10.081,0.012,-0.039,10.579,-7.009,-0.067
10.091,0.010,-0.016,10.505,-7.299,-0.062
10.101,0.007,0.003,10.427,-7.595,-0.047
10.111,0.005,0.022,10.345,-8.031,-0.033
10.121,0.008,0.012,10.262,-8.227,-0.023
10.131,0.012,-0.019,10.181,-8.086,-0.052
10.141,0.014,-0.040,10.106,-7.732,-0.077
10.151,0.011,-0.036,10.031,-7.562,-0.083
10.161,0.008,-0.018,9.953,-7.685,-0.066
10.171,0.006,-0.003,9.873,-7.929,-0.057
10.181,0.004,0.024,9.787,-8.372,-0.042
10.191,0.006,0.015,9.697,-8.801,-0.033
10.201,0.009,-0.002,9.608,-8.839,-0.035
10.211,0.008,-0.005,9.522,-8.723,-0.058
10.221,0.007,0.006,9.434,-8.763,-0.054
10.231,0.007,0.012,9.344,-8.901,-0.044
10.241,0.005,0.028,9.250,-9.233,-0.031
10.251,0.006,0.034,9.153,-9.547,-0.015
10.261,0.009,0.017,9.057,-9.575,-0.026
10.271,0.009,0.015,8.964,-9.426,-0.036
10.281,0.008,0.019,8.871,-9.305,-0.023
10.291,0.010,0.019,8.778,-9.316,-0.013
10.301,0.011,0.006,8.687,-9.165,-0.022
10.311,0.013,-0.006,8.599,-8.960,-0.033
10.321,0.015,-0.026,8.512,-8.739,-0.043
10.331,0.014,-0.021,8.432,-8.308,-0.060
10.341,0.011,-0.010,8.347,-8.390,-0.047
10.351,0.012,-0.011,8.262,-8.450,-0.039
10.361,0.012,-0.014,8.178,-8.416,-0.057
10.371,0.011,-0.014,8.096,-8.326,-0.054
10.381,0.012,-0.018,8.011,-8.402,-0.051
10.391,0.012,-0.027,7.930,-8.245,-0.062
10.401,0.011,-0.025,7.847,-8.220,-0.069
10.411,0.009,-0.014,7.765,-8.211,-0.061
10.421,0.007,0.001,7.681,-8.333,-0.061
10.431,0.004,0.022,7.593,-8.661,-0.032
10.441,0.003,0.043,7.502,-8.943,-0.012
10.451,0.004,0.042,7.409,-9.223,-0.001
10.461,0.010,0.012,7.320,-9.006,-0.014
10.562,0.014,-0.030,6.514,-7.134,-0.061
10.572,0.009,0.002,6.440,-7.338,-0.039
10.582,0.004,0.033,6.360,-7.790,-0.019
10.592,0.005,0.047,6.272,-8.400,0.017
10.602,0.010,0.021,6.188,-8.454,0.009
10.612,0.011,0.014,6.107,-8.187,-0.017
10.622,0.011,0.013,6.028,-7.994,-0.016
10.632,0.012,0.011,5.948,-7.984,-0.002
10.642,0.010,0.022,5.869,-7.953,-0.005
10.652,0.011,0.024,5.787,-8.096,0.011
10.662,0.014,0.000,5.708,-7.991,0.003
10.672,0.016,-0.015,5.634,-7.622,-0.020
10.682,0.016,-0.022,5.563,-7.270,-0.033
10.692,0.014,-0.013,5.492,-7.153,-0.027
10.702,0.014,-0.017,5.420,-7.140,-0.021
10.712,0.013,-0.016,5.350,-7.059,-0.032
10.722,0.010,0.011,5.277,-7.261,-0.023
10.732,0.010,0.007,5.201,-7.457,-0.013
10.742,0.013,-0.006,5.125,-7.574,-0.005
10.752,0.017,-0.034,5.052,-7.382,-0.040
10.762,0.018,-0.057,4.985,-6.935,-0.059
10.772,0.014,-0.043,4.918,-6.760,-0.073
10.782,0.010,-0.022,4.849,-6.880,-0.071
10.792,0.006,0.007,4.774,-7.253,-0.041
10.802,0.003,0.036,4.692,-7.889,-0.015
10.812,0.003,0.050,4.605,-8.408,0.003
10.822,0.007,0.035,4.516,-8.761,0.013
10.832,0.012,0.008,4.432,-8.544,0.009
10.842,0.014,-0.017,4.352,-8.166,-0.029
10.852,0.013,-0.016,4.274,-7.937,-0.044
10.862,0.011,0.001,4.194,-7.963,-0.040
10.872,0.009,0.016,4.113,-8.023,-0.025
10.882,0.009,0.020,4.027,-8.401,-0.010
10.892,0.012,-0.001,3.942,-8.502,-0.016
10.902,0.014,-0.022,3.860,-8.280,-0.033
10.912,0.013,-0.021,3.783,-7.924,-0.059
10.922,0.011,-0.006,3.701,-8.087,-0.047
10.932,0.009,0.006,3.618,-8.218,-0.046
10.942,0.005,0.035,3.530,-8.620,-0.015
10.952,0.005,0.053,3.436,-9.137,0.010
10.962,0.009,0.033,3.339,-9.540,0.017
10.972,0.011,0.021,3.247,-9.290,-0.009
10.982,0.012,0.014,3.154,-9.309,-0.006
10.992,0.014,0.001,3.064,-9.112,-0.018
11.002,0.013,0.007,2.974,-8.994,-0.020
11.012,0.014,0.002,2.884,-9.006,-0.012
11.022,0.015,-0.007,2.796,-8.908,-0.016
11.032,0.013,0.003,2.707,-8.901,-0.028
11.042,0.012,0.010,2.619,-8.821,-0.019
11.052,0.013,0.013,2.526,-9.102,-0.000
11.062,0.015,-0.000,2.438,-8.914,-0.009
11.072,0.016,-0.011,2.353,-8.673,-0.022
11.113,0.015,-0.041,2.044,-7.513,-0.072
11.123,0.014,-0.039,1.967,-7.599,-0.070
11.133,0.012,-0.032,1.889,-7.718,-0.075
11.143,0.008,-0.012,1.811,-7.818,-0.075
11.153,0.008,-0.003,1.730,-7.998,-0.057
11.163,0.009,-0.016,1.649,-8.090,-0.049
11.173,0.010,-0.026,1.568,-8.040,-0.061
11.183,0.009,-0.021,1.490,-7.893,-0.080
11.193,0.007,-0.001,1.411,-7.924,-0.060
11.203,0.005,0.009,1.328,-8.137,-0.049
11.213,0.005,0.019,1.244,-8.338,-0.034
11.223,0.007,0.016,1.160,-8.405,-0.026
11.233,0.009,0.001,1.077,-8.326,-0.033
11.243,0.010,-0.008,0.999,-7.965,-0.043
11.253,0.009,-0.004,0.921,-7.871,-0.053
11.263,0.006,0.014,0.843,-7.838,-0.042
11.273,0.005,0.029,0.764,-7.877,-0.025
11.283,0.005,0.036,0.680,-8.177,-0.015
11.293,0.007,0.032,0.597,-8.250,0.010
11.303,0.013,-0.001,0.517,-8.118,-0.012
11.313,0.016,-0.040,0.444,-7.564,-0.038
11.323,0.014,-0.038,0.377,-7.021,-0.070
11.333,0.010,-0.016,0.306,-7.044,-0.056
11.343,0.008,-0.000,0.233,-7.228,-0.032
11.353,0.006,0.019,0.156,-7.499,-0.028
11.363,0.004,0.041,0.076,-7.841,-0.008
11.373,0.008,0.029,-0.007,-8.140,0.014
11.383,0.014,-0.008,-0.086,-7.981,-0.015
11.393,0.015,-0.033,-0.156,-7.340,-0.047
11.403,0.013,-0.026,-0.225,-7.047,-0.051
11.413,0.012,-0.022,-0.295,-7.026,-0.051
11.423,0.010,-0.009,-0.367,-7.124,-0.039
11.433,0.007,0.012,-0.439,-7.231,-0.032
11.443,0.006,0.025,-0.516,-7.525,-0.004
11.453,0.010,0.005,-0.594,-7.697,-0.004
11.463,0.014,-0.020,-0.666,-7.347,-0.023
11.473,0.014,-0.033,-0.736,-7.102,-0.051
11.483,0.012,-0.022,-0.802,-6.813,-0.053
11.493,0.012,-0.022,-0.872,-6.926,-0.046
11.503,0.010,-0.014,-0.940,-6.834,-0.054
11.513,0.007,0.004,-1.011,-7.005,-0.037
11.523,0.006,0.012,-1.085,-7.298,-0.029
11.533,0.009,-0.002,-1.161,-7.470,-0.022
11.543,0.011,-0.019,-1.234,-7.373,-0.041
11.553,0.011,-0.022,-1.306,-7.237,-0.057
11.563,0.010,-0.020,-1.378,-7.194,-0.059
11.573,0.008,-0.012,-1.452,-7.355,-0.058
11.583,0.004,0.020,-1.528,-7.542,-0.049
11.593,0.002,0.038,-1.611,-8.059,-0.029
11.603,0.004,0.041,-1.698,-8.443,0.003
11.613,0.009,0.017,-1.784,-8.592,-0.015
11.642,0.008,0.008,-2.026,-8.116,-0.042
11.652,0.006,0.019,-2.110,-8.356,-0.020
11.662,0.005,0.046,-2.199,-8.717,-0.012
11.672,0.007,0.038,-2.290,-8.965,0.002
11.682,0.012,0.011,-2.381,-9.023,0.009
11.692,0.014,-0.020,-2.464,-8.530,-0.037
11.702,0.014,-0.017,-2.546,-8.314,-0.050
11.712,0.013,-0.015,-2.627,-8.165,-0.043
11.722,0.012,-0.015,-2.710,-8.297,-0.045
11.732,0.011,-0.006,-2.794,-8.364,-0.041
11.742,0.014,-0.029,-2.881,-8.592,-0.050
11.752,0.016,-0.058,-2.962,-8.258,-0.086
11.762,0.014,-0.053,-3.041,-8.019,-0.107
11.772,0.011,-0.046,-3.121,-7.990,-0.114
11.782,0.008,-0.032,-3.206,-8.313,-0.094
11.792,0.003,-0.000,-3.292,-8.550,-0.095
11.802,0.002,0.017,-3.388,-9.241,-0.060
11.812,0.005,0.008,-3.485,-9.549,-0.047
11.822,0.004,0.009,-3.580,-9.498,-0.063
11.832,0.004,0.016,-3.676,-9.557,-0.055
11.842,0.006,0.005,-3.774,-9.731,-0.054
11.852,0.007,-0.001,-3.867,-9.431,-0.074
11.862,0.006,0.005,-3.959,-9.279,-0.064
11.872,0.005,0.008,-4.052,-9.331,-0.057
11.882,0.004,0.020,-4.147,-9.400,-0.051
11.892,0.005,0.019,-4.243,-9.550,-0.041
11.902,0.006,0.018,-4.339,-9.576,-0.037
11.912,0.005,0.022,-4.436,-9.656,-0.043
11.922,0.006,0.029,-4.532,-9.635,-0.023
11.932,0.008,0.011,-4.629,-9.682,-0.027
11.942,0.010,0.004,-4.723,-9.491,-0.040
11.952,0.009,0.004,-4.815,-9.273,-0.045
11.962,0.010,0.001,-4.907,-9.253,-0.045
11.972,0.009,0.001,-4.998,-9.144,-0.049
11.982,0.008,0.015,-5.091,-9.208,-0.041
11.992,0.009,0.013,-5.182,-9.155,-0.032
12.002,0.010,-0.000,-5.273,-9.163,-0.032
12.012,0.009,0.009,-5.360,-8.858,-0.043
12.022,0.009,0.013,-5.450,-8.935,-0.035
12.032,0.009,0.006,-5.538,-8.831,-0.032
12.042,0.007,0.022,-5.626,-8.826,-0.041
12.052,0.009,0.020,-5.716,-8.899,-0.023
12.062,0.013,-0.012,-5.804,-8.847,-0.032
12.072,0.013,-0.021,-5.884,-8.292,-0.058
12.082,0.010,-0.007,-5.966,-8.234,-0.063
12.092,0.009,0.003,-6.049,-8.294,-0.047
12.102,0.006,0.017,-6.135,-8.491,-0.030
12.112,0.005,0.041,-6.226,-8.864,-0.012
12.122,0.009,0.026,-6.317,-9.017,-0.000
12.132,0.012,0.002,-6.405,-8.887,-0.010
12.142,0.011,0.001,-6.490,-8.612,-0.034
12.181,0.008,0.054,-6.843,-9.099,0.029
12.191,0.013,0.019,-6.932,-8.963,0.018
12.201,0.015,0.007,-7.016,-8.562,-0.013
12.211,0.015,-0.003,-7.097,-8.247,-0.009
12.221,0.016,-0.007,-7.177,-8.094,-0.005
12.231,0.016,-0.007,-7.255,-7.937,-0.019
12.241,0.014,0.002,-7.335,-7.938,-0.010
12.251,0.016,-0.014,-7.415,-8.016,-0.014
12.261,0.019,-0.045,-7.491,-7.735,-0.026
12.271,0.021,-0.066,-7.561,-7.256,-0.080
12.281,0.018,-0.072,-7.630,-7.018,-0.088
12.291,0.013,-0.038,-7.702,-7.096,-0.091
12.301,0.008,-0.014,-7.779,-7.528,-0.071
12.311,0.004,0.024,-7.864,-8.187,-0.037
12.321,0.003,0.042,-7.956,-8.822,-0.007
12.331,0.007,0.018,-8.048,-9.070,-0.008
12.341,0.013,-0.020,-8.135,-8.828,-0.034
12.351,0.015,-0.037,-8.214,-8.234,-0.070
12.361,0.013,-0.036,-8.293,-8.011,-0.077
12.371,0.011,-0.023,-8.376,-8.188,-0.075
12.381,0.007,-0.000,-8.461,-8.410,-0.063
12.391,0.007,0.005,-8.549,-8.653,-0.045
12.401,0.011,-0.014,-8.637,-8.771,-0.048
12.411,0.013,-0.038,-8.722,-8.573,-0.082
12.421,0.009,-0.020,-8.804,-8.303,-0.088
12.431,0.006,0.002,-8.893,-8.748,-0.057
12.441,0.004,0.024,-8.986,-9.101,-0.047
12.451,0.001,0.051,-9.085,-9.607,-0.011
12.461,0.004,0.045,-9.189,-10.160,-0.006
12.471,0.007,0.029,-9.291,-10.160,-0.026
12.481,0.006,0.036,-9.391,-10.106,-0.029
12.491,0.007,0.034,-9.494,-10.200,-0.014
12.501,-0.054,0.835,-9.600,-10.451,0.216
12.511,-0.075,1.039,-9.707,-10.616,1.059
12.521,-0.035,0.828,-9.779,-8.376,1.230
12.531,0.023,0.343,-9.781,-2.894,0.759
12.541,0.062,0.435,-9.717,3.254,1.033
12.551,0.100,0.142,-9.599,8.984,0.855
12.561,0.128,-0.205,-9.418,15.064,0.607
12.571,0.139,-0.391,-9.190,20.182,0.423
12.581,0.141,-0.531,-8.930,24.116,0.238
12.591,0.132,-0.608,-8.651,26.647,0.059
12.601,0.118,-0.638,-8.358,28.368,-0.076
12.611,0.097,-0.621,-8.061,29.285,-0.150
12.621,0.076,-0.578,-7.773,28.903,-0.204
12.631,0.053,-0.511,-7.500,27.845,-0.198
12.641,0.034,-0.432,-7.246,26.225,-0.215
12.651,0.016,-0.337,-7.007,24.702,-0.201
12.661,0.001,-0.256,-6.779,23.396,-0.190
12.671,-0.012,-0.181,-6.567,21.992,-0.165
12.700,-0.029,-0.050,-6.003,18.384,-0.042
12.710,-0.032,-0.021,-5.832,17.505,-0.023
12.720,-0.032,0.002,-5.668,16.777,-0.001
12.730,-0.029,-0.006,-5.507,16.330,0.017
12.740,-0.026,-0.017,-5.346,16.207,0.022
12.750,-0.023,-0.022,-5.183,16.242,0.028
12.760,-0.020,-0.035,-5.019,16.333,0.021
12.770,-0.017,-0.055,-4.852,16.591,-0.003
12.780,-0.018,-0.056,-4.684,16.726,-0.009
12.790,-0.018,-0.051,-4.520,16.492,-0.009
12.800,-0.017,-0.058,-4.360,16.210,-0.009
12.810,-0.017,-0.068,-4.199,16.141,-0.013
12.820,-0.019,-0.056,-4.040,15.939,-0.023
12.830,-0.022,-0.029,-3.887,15.514,-0.007
12.840,-0.022,-0.035,-3.740,14.963,-0.006
12.850,-0.023,-0.017,-3.595,14.703,0.003
12.860,-0.021,-0.025,-3.451,14.437,0.008
12.870,-0.020,-0.027,-3.310,14.222,-0.008
12.880,-0.019,-0.048,-3.172,13.969,-0.006
12.890,-0.021,-0.025,-3.038,13.553,-0.001
12.900,-0.020,-0.022,-2.909,13.159,0.006
12.910,-0.018,-0.037,-2.785,12.671,-0.012
12.920,-0.017,-0.059,-2.663,12.328,-0.061
12.930,-0.019,-0.056,-2.542,12.188,-0.058
12.940,-0.023,-0.027,-2.432,11.374,-0.043
12.950,-0.023,-0.023,-2.328,10.745,-0.032
12.960,-0.022,-0.029,-2.228,10.255,-0.046
12.970,-0.021,-0.036,-2.130,9.938,-0.057
12.980,-0.021,-0.037,-2.034,9.679,-0.066
12.990,-0.025,-0.014,-1.945,9.209,-0.056
13.000,-0.028,0.021,-1.865,8.362,-0.038
13.010,-0.027,0.016,-1.793,7.594,-0.024
13.020,-0.023,0.003,-1.723,7.210,-0.031
13.030,-0.019,-0.022,-1.654,7.031,-0.058
13.040,-0.018,-0.040,-1.583,7.047,-0.082
13.050,-0.019,-0.035,-1.517,6.772,-0.098
13.060,-0.023,-0.014,-1.456,6.297,-0.088
13.070,-0.028,0.018,-1.404,5.550,-0.067
13.080,-0.031,0.053,-1.365,4.484,-0.026
13.090,-0.031,0.072,-1.333,3.642,-0.002
13.100,-0.028,0.070,-1.307,2.901,0.009
13.110,-0.024,0.056,-1.284,2.552,-0.004
13.120,-0.022,0.049,-1.261,2.385,-0.013
13.130,-0.018,0.036,-1.241,2.099,-0.024
13.140,-0.014,0.003,-1.219,2.157,-0.035
13.150,-0.010,-0.023,-1.197,2.227,-0.064
13.160,-0.009,-0.052,-1.172,2.404,-0.088
13.170,-0.007,-0.071,-1.146,2.515,-0.133
13.180,-0.008,-0.085,-1.121,2.525,-0.146
13.221,-0.024,-0.012,-1.077,0.292,-0.136
13.231,-0.025,0.006,-1.084,-0.388,-0.139
13.241,-0.025,0.005,-1.097,-0.999,-0.130
13.251,-0.025,0.015,-1.115,-1.534,-0.128
13.261,-0.022,-0.003,-1.136,-1.893,-0.135
13.271,-0.019,-0.025,-1.155,-1.934,-0.161
13.281,-0.019,-0.036,-1.178,-2.180,-0.175
13.291,-0.019,-0.038,-1.203,-2.362,-0.188
13.301,-0.020,-0.035,-1.231,-2.629,-0.193
13.311,-0.022,-0.026,-1.265,-3.150,-0.192
13.321,-0.025,-0.006,-1.305,-3.762,-0.190
13.331,-0.028,0.014,-1.353,-4.447,-0.174
13.341,-0.032,0.054,-1.411,-5.320,-0.160
13.351,-0.034,0.082,-1.480,-6.372,-0.106
13.361,-0.035,0.122,-1.559,-7.369,-0.088
13.371,-0.034,0.132,-1.648,-8.409,-0.052
13.381,-0.026,0.111,-1.741,-8.998,-0.049
13.391,-0.018,0.068,-1.829,-8.878,-0.089
13.401,-0.014,0.038,-1.915,-8.713,-0.116
13.411,-0.015,0.042,-2.001,-8.654,-0.119
13.421,-0.015,0.046,-2.095,-9.146,-0.115
13.431,-0.016,0.057,-2.193,-9.545,-0.100
13.441,-0.013,0.054,-2.296,-10.062,-0.097
13.451,-0.009,0.020,-2.397,-10.103,-0.117
13.461,-0.010,0.023,-2.499,-10.168,-0.144
13.471,-0.013,0.041,-2.608,-10.644,-0.123
13.481,-0.016,0.065,-2.725,-11.326,-0.100
13.491,-0.018,0.087,-2.852,-12.257,-0.076
13.501,-0.014,0.086,-2.986,-13.042,-0.078
13.511,-0.015,0.086,-3.123,-13.466,-0.071
13.521,-0.013,0.102,-3.266,-14.007,-0.068
13.531,-0.012,0.104,-3.415,-14.581,-0.048
13.541,-0.009,0.102,-3.564,-14.817,-0.059
13.551,-0.007,0.081,-3.713,-14.848,-0.067
13.561,-0.005,0.090,-3.862,-14.931,-0.044
13.571,-0.000,0.056,-4.012,-14.946,-0.048
13.581,-0.000,0.056,-4.157,-14.672,-0.089
13.591,-0.000,0.056,-4.306,-14.776,-0.064
13.601,0.000,0.060,-4.455,-14.930,-0.070
13.611,-0.001,0.069,-4.608,-15.144,-0.054
13.621,-0.000,0.074,-4.763,-15.411,-0.031
13.631,0.001,0.074,-4.922,-15.722,-0.052
13.641,0.002,0.067,-5.080,-15.768,-0.048
13.651,0.006,0.047,-5.236,-15.668,-0.051
13.661,0.005,0.051,-5.390,-15.449,-0.076
13.671,0.003,0.055,-5.543,-15.393,-0.048
13.681,0.001,0.081,-5.701,-15.647,-0.044
13.691,0.003,0.089,-5.861,-15.851,-0.017
13.701,0.003,0.078,-6.024,-16.175,-0.020
13.711,0.004,0.093,-6.186,-16.174,-0.019
13.806,0.020,-0.005,-7.627,-15.495,-0.027
13.816,0.020,-0.001,-7.781,-15.417,-0.067
13.826,0.020,-0.013,-7.933,-15.315,-0.060
13.836,0.021,-0.039,-8.088,-15.408,-0.083
13.846,0.017,-0.015,-8.239,-15.209,-0.118
13.856,0.012,0.007,-8.394,-15.371,-0.096
13.866,0.012,0.023,-8.552,-15.708,-0.091
13.876,0.011,0.019,-8.715,-16.052,-0.071
13.886,0.009,0.043,-8.879,-16.317,-0.085
13.896,0.008,0.061,-9.048,-16.714,-0.059
13.906,0.009,0.055,-9.225,-17.332,-0.040
13.916,0.011,0.050,-9.403,-17.691,-0.049
13.926,0.011,0.056,-9.582,-17.788,-0.054
13.936,0.013,0.047,-9.763,-17.995,-0.041
13.946,0.014,0.053,-9.941,-17.914,-0.047
13.956,0.016,0.040,-10.119,-17.834,-0.031
13.966,0.016,0.040,-10.292,-17.474,-0.045
13.976,0.016,0.037,-10.463,-17.226,-0.039
13.986,0.017,0.041,-10.635,-17.172,-0.039
13.996,0.018,0.039,-10.805,-17.074,-0.028
14.006,0.017,0.034,-10.973,-16.916,-0.026
14.016,0.016,0.051,-11.142,-16.886,-0.036
14.026,0.016,0.059,-11.312,-16.954,-0.012
14.036,0.018,0.057,-11.481,-16.903,-0.002
14.046,0.018,0.053,-11.647,-16.730,0.007
14.056,0.018,0.062,-11.809,-16.391,0.004
14.066,0.021,0.047,-11.970,-16.199,0.022
14.076,0.023,0.033,-12.129,-15.961,0.014
14.086,0.023,0.025,-12.284,-15.649,0.004
14.096,0.022,0.046,-12.436,-15.341,-0.005
14.106,0.025,0.018,-12.589,-15.338,0.027
14.116,0.026,0.013,-12.740,-15.193,-0.004
14.126,0.026,-0.004,-12.888,-14.907,-0.004
14.136,0.025,0.015,-13.028,-14.325,-0.029
14.146,0.026,-0.013,-13.169,-14.155,0.003
14.156,0.025,-0.009,-13.307,-13.948,-0.036
14.166,0.022,-0.007,-13.441,-13.571,-0.031
14.176,0.020,0.028,-13.575,-13.446,-0.038
14.186,0.022,0.007,-13.712,-13.608,0.008
14.196,0.023,0.015,-13.846,-13.512,-0.018
14.206,0.023,-0.006,-13.980,-13.375,0.003
14.216,0.019,0.018,-14.115,-13.458,-0.033
14.226,0.021,0.040,-14.253,-13.688,-0.012
14.236,0.022,-0.003,-14.390,-13.716,0.029
14.246,0.023,0.015,-14.526,-13.623,-0.032
14.256,0.021,0.000,-14.659,-13.464,-0.001
14.266,0.021,0.024,-14.794,-13.437,-0.031
14.276,0.025,0.018,-14.929,-13.504,0.006
14.286,0.025,-0.002,-15.058,-13.117,0.016
14.325,0.027,-0.041,-15.571,-12.637,-0.040
14.335,0.026,-0.043,-15.690,-12.176,-0.072
14.345,0.025,-0.040,-15.812,-12.165,-0.068
14.355,0.023,-0.038,-15.933,-12.108,-0.071
14.365,0.024,-0.037,-16.055,-12.192,-0.055
14.375,0.022,-0.039,-16.172,-11.858,-0.064
14.385,0.023,-0.047,-16.289,-11.742,-0.078
14.395,0.021,-0.046,-16.405,-11.629,-0.076
14.405,0.020,-0.033,-16.517,-11.382,-0.072
14.415,0.018,-0.023,-16.628,-11.203,-0.071
14.425,0.014,0.005,-16.740,-11.203,-0.058
14.435,0.014,0.013,-16.857,-11.468,-0.039
14.445,0.014,0.012,-16.974,-11.656,-0.037
14.455,0.014,0.025,-17.090,-11.629,-0.028
14.465,0.016,0.021,-17.207,-11.652,-0.006
14.475,0.016,0.011,-17.319,-11.373,-0.023
14.485,0.016,0.014,-17.432,-11.313,-0.024
14.495,0.014,0.026,-17.542,-11.103,-0.010
14.505,0.014,0.037,-17.653,-11.144,0.013
14.515,0.018,0.028,-17.765,-11.154,0.029
14.525,0.020,0.006,-17.870,-10.725,0.010
14.535,0.019,0.010,-17.972,-10.371,0.006
14.545,0.020,0.003,-18.071,-10.028,0.014
14.555,0.019,0.013,-18.167,-9.785,0.005
14.565,0.022,-0.002,-18.263,-9.659,0.010
14.575,0.026,-0.030,-18.354,-9.248,0.004
14.585,0.026,-0.047,-18.437,-8.661,-0.022
14.595,0.022,-0.026,-18.520,-8.380,-0.037
14.605,0.020,-0.014,-18.603,-8.368,-0.016
14.615,0.017,0.002,-18.687,-8.360,-0.001
14.625,0.016,0.013,-18.775,-8.669,0.007
14.635,0.022,-0.022,-18.862,-8.692,0.025
14.645,0.027,-0.069,-18.942,-8.192,-0.004
14.655,0.028,-0.088,-19.012,-7.433,-0.062
14.665,0.023,-0.082,-19.076,-6.750,-0.085
14.675,0.018,-0.054,-19.141,-6.594,-0.085
14.685,0.013,-0.011,-19.212,-6.877,-0.057
14.695,0.010,0.010,-19.289,-7.429,-0.019
14.705,0.011,0.010,-19.368,-7.795,0.000
14.715,0.015,-0.016,-19.446,-7.763,-0.010
14.725,0.018,-0.047,-19.516,-7.295,-0.031
14.735,0.018,-0.057,-19.582,-6.775,-0.056
14.745,0.016,-0.044,-19.644,-6.426,-0.061
14.755,0.014,-0.033,-19.710,-6.513,-0.053
14.765,0.012,-0.013,-19.776,-6.571,-0.042
14.775,0.009,0.005,-19.844,-6.763,-0.029
14.785,0.010,0.006,-19.916,-7.062,-0.010
14.795,0.015,-0.020,-19.987,-7.058,-0.013
14.824,0.017,-0.069,-20.170,-5.871,-0.086
14.834,0.014,-0.058,-20.228,-5.820,-0.093
14.844,0.010,-0.035,-20.290,-6.031,-0.075
14.854,0.005,-0.006,-20.356,-6.408,-0.068
14.864,0.002,0.026,-20.428,-6.942,-0.037
14.874,0.003,0.037,-20.504,-7.402,-0.008
14.884,0.007,0.018,-20.583,-7.760,-0.002
14.894,0.012,-0.019,-20.659,-7.598,-0.032
14.904,0.013,-0.036,-20.728,-7.134,-0.052
14.914,0.012,-0.040,-20.793,-6.750,-0.066
14.924,0.010,-0.022,-20.860,-6.699,-0.066
14.934,0.008,-0.011,-20.929,-6.860,-0.054
14.944,-0.049,0.175,-21.003,-7.196,-0.044
14.954,-0.070,0.886,-21.085,-7.896,0.892
14.964,-0.061,1.139,-21.156,-7.311,0.892
14.974,-0.034,1.090,-21.175,-3.716,1.383
14.984,0.023,0.880,-21.126,1.984,1.678
14.994,0.082,0.342,-20.994,9.449,1.446
15.004,0.124,0.119,-20.784,17.214,1.181
15.014,0.157,-0.160,-20.503,24.424,1.016
15.024,0.172,-0.428,-20.167,30.580,0.793
15.034,0.182,-0.629,-19.785,35.631,0.561
15.044,0.181,-0.846,-19.356,40.512,0.304
15.054,0.172,-0.947,-18.884,44.979,0.045
15.064,0.158,-1.048,-18.384,48.303,-0.191
15.074,0.129,-1.045,-17.864,50.743,-0.358
15.084,0.089,-0.912,-17.331,52.496,-0.482
15.094,0.046,-0.737,-16.815,51.821,-0.493
15.104,0.010,-0.563,-16.337,49.221,-0.348
15.114,-0.015,-0.430,-15.880,46.857,-0.302
15.124,-0.033,-0.293,-15.457,43.818,-0.246
15.134,-0.044,-0.230,-15.071,40.349,-0.196
15.144,-0.051,-0.172,-14.707,37.651,-0.133
15.154,-0.053,-0.131,-14.358,35.842,-0.109
15.164,-0.057,-0.108,-14.022,34.352,-0.114
15.174,-0.059,-0.087,-13.703,32.697,-0.121
15.184,-0.061,-0.054,-13.399,31.226,-0.107
15.194,-0.062,-0.015,-13.099,30.376,-0.056
15.204,-0.064,0.016,-12.806,29.687,-0.030
15.214,-0.063,0.045,-12.522,28.839,0.011
15.224,-0.061,0.063,-12.248,27.812,0.047
15.234,-0.057,0.062,-11.983,26.963,0.083
15.244,-0.050,0.040,-11.721,26.449,0.085
15.254,-0.044,0.011,-11.456,26.512,0.078
15.264,-0.038,-0.025,-11.183,27.042,0.069
15.274,-0.034,-0.044,-10.908,27.341,0.051
15.284,-0.032,-0.063,-10.632,27.470,0.027
15.294,-0.030,-0.080,-10.358,27.461,0.011
15.304,-0.028,-0.096,-10.084,27.435,0.002
15.345,-0.031,-0.133,-8.988,26.721,-0.077
15.355,-0.035,-0.119,-8.738,25.669,-0.094
15.365,-0.038,-0.111,-8.494,24.807,-0.108
15.375,-0.041,-0.094,-8.258,23.968,-0.116
15.385,-0.042,-0.084,-8.032,23.071,-0.118
15.395,-0.043,-0.086,-7.816,22.112,-0.133
15.405,-0.048,-0.054,-7.608,21.193,-0.142
15.415,-0.051,-0.036,-7.413,20.113,-0.122
15.425,-0.053,-0.021,-7.232,18.744,-0.119
15.435,-0.057,0.022,-7.060,17.726,-0.105
15.445,-0.057,0.051,-6.898,16.704,-0.078
15.455,-0.056,0.049,-6.745,15.738,-0.051
15.465,-0.055,0.066,-6.599,14.984,-0.034
15.475,-0.053,0.064,-6.459,14.328,-0.031
15.485,-0.049,0.067,-6.326,13.644,-0.014
15.495,-0.045,0.027,-6.196,13.212,-0.001
15.505,-0.043,0.040,-6.069,12.869,-0.026
15.515,-0.044,0.047,-5.947,12.445,-0.032
15.525,-0.043,0.055,-5.834,11.663,-0.024
15.535,-0.039,0.032,-5.728,10.947,-0.014
15.545,-0.035,0.014,-5.622,10.749,-0.045
15.555,-0.034,0.004,-5.518,10.493,-0.055
15.565,-0.037,0.016,-5.415,10.371,-0.069
15.575,-0.040,0.051,-5.323,9.597,-0.056
15.585,-0.040,0.063,-5.240,8.745,-0.032
15.595,-0.038,0.053,-5.164,7.978,-0.027
15.605,-0.036,0.049,-5.092,7.464,-0.027
15.615,-0.033,0.035,-5.022,7.118,-0.034
15.625,-0.031,0.018,-4.955,6.845,-0.048
15.635,-0.031,0.014,-4.890,6.655,-0.068
15.645,-0.033,0.031,-4.831,6.154,-0.070
15.655,-0.035,0.057,-4.779,5.504,-0.058
15.665,-0.036,0.075,-4.738,4.570,-0.039
15.675,-0.034,0.068,-4.704,3.774,-0.023
15.685,-0.031,0.060,-4.674,3.251,-0.032
15.695,-0.029,0.046,-4.646,2.976,-0.043
15.705,-0.027,0.034,-4.622,2.577,-0.060
15.715,-0.026,0.029,-4.600,2.291,-0.061
15.725,-0.024,0.016,-4.584,1.888,-0.074
15.735,-0.022,-0.001,-4.567,1.704,-0.090
15.745,-0.022,-0.008,-4.553,1.539,-0.109
15.755,-0.025,0.001,-4.543,1.178,-0.122
15.765,-0.027,0.016,-4.539,0.674,-0.125
15.775,-0.027,0.022,-4.543,-0.031,-0.106
15.785,-0.024,0.011,-4.552,-0.675,-0.110
15.795,-0.023,0.001,-4.564,-0.992,-0.130
15.805,-0.023,-0.006,-4.579,-1.302,-0.146
15.815,-0.024,-0.009,-4.595,-1.560,-0.156
15.825,-0.026,0.004,-4.619,-2.079,-0.160
15.835,-0.027,0.010,-4.649,-2.688,-0.154
15.864,-0.034,0.073,-4.779,-4.709,-0.131
15.874,-0.034,0.090,-4.839,-5.615,-0.108
15.884,-0.033,0.102,-4.909,-6.524,-0.093
15.894,-0.032,0.111,-4.984,-7.186,-0.078
15.904,-0.030,0.119,-5.065,-7.790,-0.069
15.914,-0.027,0.116,-5.150,-8.272,-0.056
15.924,-0.021,0.094,-5.239,-8.689,-0.045
15.934,-0.018,0.070,-5.324,-8.572,-0.072
15.944,-0.016,0.058,-5.412,-8.659,-0.079
15.954,-0.015,0.057,-5.500,-8.769,-0.086
15.964,-0.014,0.052,-5.590,-8.931,-0.091
15.974,-0.011,0.035,-5.682,-9.138,-0.087
15.984,-0.008,0.004,-5.775,-9.236,-0.098
15.994,-0.009,0.002,-5.864,-9.035,-0.146
16.004,-0.013,0.027,-5.960,-9.350,-0.144
16.014,-0.015,0.045,-6.061,-9.892,-0.122
16.024,-0.019,0.083,-6.169,-10.506,-0.116
16.034,-0.018,0.086,-6.289,-11.480,-0.083
16.044,-0.016,0.082,-6.412,-12.059,-0.078
16.054,-0.014,0.078,-6.538,-12.410,-0.085
16.064,-0.014,0.090,-6.665,-12.599,-0.070
16.074,-0.014,0.089,-6.795,-12.868,-0.081
16.084,-0.011,0.097,-6.931,-13.360,-0.040
16.094,-0.008,0.069,-7.065,-13.350,-0.072
16.104,-0.007,0.063,-7.200,-13.475,-0.082
16.114,-0.006,0.051,-7.335,-13.517,-0.072
16.124,-0.002,0.037,-7.472,-13.636,-0.092
16.134,0.000,0.021,-7.610,-13.725,-0.101
16.144,-0.001,0.007,-7.747,-13.723,-0.140
16.154,-0.003,0.045,-7.891,-14.141,-0.110
16.164,-0.003,0.034,-8.040,-14.658,-0.110
16.174,-0.002,0.040,-8.193,-15.083,-0.097
16.184,-0.004,0.042,-8.348,-15.356,-0.137
16.194,-0.005,0.067,-8.510,-15.938,-0.098
16.204,-0.003,0.066,-8.677,-16.455,-0.088
16.214,-0.002,0.057,-8.847,-16.791,-0.089
16.224,-0.002,0.062,-9.020,-17.152,-0.100
16.234,0.000,0.053,-9.197,-17.534,-0.102
16.244,-0.001,0.063,-9.380,-17.984,-0.093
16.254,-0.002,0.075,-9.568,-18.542,-0.091
16.264,-0.000,0.081,-9.759,-18.940,-0.080
16.274,-0.002,0.088,-9.954,-19.275,-0.081
16.284,-0.001,0.101,-10.150,-19.541,-0.059
16.294,-0.000,0.103,-10.347,-19.655,-0.053
16.304,0.001,0.110,-10.545,-19.697,-0.047
16.314,0.002,0.107,-10.744,-19.878,-0.030
16.324,0.004,0.105,-10.945,-20.000,-0.022
16.334,0.005,0.108,-11.146,-20.062,-0.018
16.344,0.006,0.115,-11.348,-20.135,-0.021
16.385,0.016,0.076,-12.131,-19.250,0.022
16.395,0.019,0.054,-12.320,-19.046,0.009
16.405,0.021,0.053,-12.507,-18.768,-0.000
16.415,0.022,0.029,-12.691,-18.556,-0.018
16.425,0.023,0.022,-12.874,-18.355,-0.038
16.435,0.022,0.020,-13.050,-17.902,-0.046
16.445,0.023,0.011,-13.226,-17.698,-0.048
16.455,0.023,0.006,-13.397,-17.304,-0.061
16.465,0.019,0.023,-13.569,-17.219,-0.054
16.475,0.019,0.022,-13.742,-17.270,-0.051
16.485,0.020,0.019,-13.919,-17.543,-0.046
16.495,0.018,0.027,-14.097,-17.672,-0.055
16.505,0.019,0.025,-14.276,-17.862,-0.051
16.515,0.022,0.004,-14.457,-18.002,-0.044
16.525,0.022,-0.006,-14.635,-17.887,-0.070
16.535,0.021,-0.008,-14.812,-17.771,-0.087
16.545,0.021,-0.012,-14.988,-17.629,-0.084
16.555,0.020,-0.007,-15.161,-17.464,-0.095
16.565,0.017,0.017,-15.341,-17.812,-0.095
16.575,0.018,0.017,-15.527,-18.314,-0.071
16.585,0.017,0.019,-15.716,-18.681,-0.086
16.595,0.016,0.027,-15.905,-18.859,-0.077
16.605,0.015,0.039,-16.098,-19.119,-0.069
16.615,0.014,0.054,-16.290,-19.179,-0.065
16.625,0.012,0.066,-16.482,-19.229,-0.045
16.635,0.011,0.085,-16.674,-19.218,-0.027
16.645,0.013,0.093,-16.867,-19.240,0.007
16.655,0.015,0.087,-17.061,-19.353,0.008
16.665,0.019,0.074,-17.253,-19.258,0.020
16.675,0.021,0.065,-17.442,-19.001,0.006
16.685,0.022,0.067,-17.627,-18.678,0.016
16.695,0.024,0.047,-17.807,-18.218,0.011
16.705,0.025,0.052,-17.981,-17.680,0.012
16.715,0.024,0.047,-18.152,-17.321,0.014
16.725,0.028,0.033,-18.323,-17.176,0.030
16.735,0.030,0.027,-18.488,-16.669,0.024
16.745,0.030,0.012,-18.650,-16.370,0.010
16.755,0.031,0.003,-18.806,-15.889,0.005
16.765,0.033,-0.012,-18.963,-15.751,0.007
16.775,0.033,-0.032,-19.113,-15.249,-0.044
16.785,0.030,-0.023,-19.259,-14.796,-0.010
16.795,0.030,-0.007,-19.403,-14.570,-0.037
16.805,0.030,-0.028,-19.546,-14.395,-0.029
16.815,0.029,-0.022,-19.686,-14.104,-0.036
16.825,0.027,-0.005,-19.822,-13.752,-0.016
16.835,0.026,0.010,-19.959,-13.763,-0.037
16.845,0.026,-0.004,-20.099,-13.918,-0.009
16.855,0.025,-0.004,-20.238,-13.870,-0.028
16.865,0.024,0.017,-20.377,-13.904,0.017
16.962,0.025,-0.022,-21.719,-13.288,-0.040
16.972,0.025,-0.029,-21.851,-13.223,-0.054
16.982,0.024,-0.026,-21.978,-12.921,-0.067
16.992,0.022,-0.023,-22.107,-12.872,-0.062
17.002,0.018,0.006,-22.238,-13.008,-0.049
17.012,0.017,0.028,-22.372,-13.310,-0.018
17.022,0.016,0.033,-22.508,-13.487,-0.020
17.032,0.019,0.019,-22.642,-13.394,0.017
17.042,0.022,0.020,-22.773,-13.205,-0.017
17.052,0.024,-0.014,-22.896,-12.637,-0.024
17.062,0.024,-0.008,-23.015,-12.138,-0.009
17.072,0.025,-0.022,-23.132,-11.844,-0.027
17.082,0.026,-0.028,-23.243,-11.362,-0.048
17.092,0.024,-0.037,-23.353,-11.125,-0.045
17.102,0.024,-0.032,-23.462,-10.969,-0.045
17.112,0.022,-0.037,-23.570,-10.841,-0.038
17.122,0.020,-0.020,-23.677,-10.746,-0.038
17.132,0.018,-0.011,-23.783,-10.665,-0.048
17.142,0.016,0.010,-23.891,-10.713,-0.027
17.152,0.016,0.012,-23.998,-10.755,-0.012
17.162,0.018,0.002,-24.104,-10.642,-0.017
17.172,0.018,0.000,-24.206,-10.322,-0.015
17.182,0.018,0.002,-24.306,-10.088,-0.012
17.192,0.017,0.006,-24.405,-9.984,-0.010
17.202,0.015,0.031,-24.502,-9.821,0.011
17.212,0.020,0.001,-24.600,-9.819,0.031
17.222,0.025,-0.028,-24.692,-9.358,0.004
17.232,0.025,-0.051,-24.776,-8.718,-0.040
17.242,0.024,-0.048,-24.855,-8.224,-0.036
17.252,0.022,-0.042,-24.934,-8.007,-0.031
17.262,0.018,-0.018,-25.015,-8.064,-0.027
17.272,0.016,0.005,-25.101,-8.364,-0.011
17.282,0.018,-0.005,-25.185,-8.415,0.012
17.292,0.021,-0.025,-25.267,-8.251,-0.012
17.302,0.020,-0.027,-25.344,-7.889,-0.027
17.312,0.019,-0.025,-25.418,-7.615,-0.027
17.322,0.018,-0.020,-25.493,-7.524,-0.023
17.332,0.015,-0.003,-25.570,-7.595,-0.019
17.342,0.013,0.013,-25.646,-7.619,0.010
17.352,0.017,-0.004,-25.725,-7.805,0.014
17.362,0.020,-0.035,-25.796,-7.357,-0.012
17.372,0.019,-0.037,-25.863,-6.875,-0.031
17.382,0.017,-0.024,-25.930,-6.766,-0.029
17.392,0.016,-0.017,-25.997,-6.755,-0.009
17.402,0.016,-0.014,-26.064,-6.726,-0.010
17.412,0.016,-0.010,-26.132,-6.742,-0.005
17.422,0.016,-0.018,-26.197,-6.619,-0.006
17.432,0.018,-0.031,-26.262,-6.501,-0.013
17.473,0.020,-0.086,-26.485,-5.302,-0.088
17.483,0.017,-0.084,-26.536,-5.171,-0.101
17.493,0.011,-0.039,-26.590,-5.302,-0.090
17.503,0.005,-0.001,-26.651,-5.834,-0.069
17.513,0.000,0.044,-26.721,-6.622,-0.028
17.523,0.002,0.050,-26.798,-7.321,0.012
17.533,0.009,0.014,-26.873,-7.430,0.010
17.543,0.016,-0.046,-26.941,-6.980,-0.030
17.553,0.018,-0.075,-26.998,-6.182,-0.080
17.563,0.016,-0.070,-27.053,-5.692,-0.102
17.573,0.012,-0.058,-27.109,-5.681,-0.085
17.583,0.008,-0.028,-27.168,-5.829,-0.079
17.593,0.004,0.010,-27.234,-6.317,-0.054
17.603,-0.000,0.037,-27.307,-6.985,-0.032
17.613,-0.001,0.066,-27.385,-7.548,0.014
17.623,0.004,0.049,-27.467,-7.939,0.022
17.633,0.008,0.020,-27.544,-7.812,0.012
17.643,0.010,0.009,-27.617,-7.431,-0.010
17.653,0.010,0.011,-27.688,-7.207,-0.013
17.663,0.011,0.006,-27.761,-7.289,-0.007
17.673,0.011,0.002,-27.831,-7.109,-0.015
17.683,0.011,0.003,-27.902,-7.097,-0.020
17.693,0.015,-0.023,-27.973,-7.124,-0.010
17.703,0.020,-0.064,-28.039,-6.746,-0.052
17.713,0.021,-0.093,-28.098,-6.161,-0.095
17.723,0.018,-0.087,-28.150,-5.580,-0.114
17.733,0.011,-0.058,-28.209,-5.745,-0.114
17.743,0.009,-0.036,-28.272,-6.133,-0.081
17.753,0.008,-0.034,-28.340,-6.544,-0.081
17.763,0.006,-0.024,-28.407,-6.708,-0.087
17.773,0.003,-0.004,-28.479,-6.990,-0.076
17.783,0.004,0.001,-28.554,-7.368,-0.062
17.793,0.003,0.003,-28.628,-7.391,-0.058
17.803,0.001,0.020,-28.706,-7.625,-0.051
17.813,0.001,0.031,-28.786,-7.889,-0.030
17.823,0.005,0.016,-28.866,-8.000,-0.022
17.833,0.009,-0.006,-28.945,-7.883,-0.048
17.843,0.008,-0.009,-29.016,-7.404,-0.061
17.853,0.007,-0.006,-29.089,-7.326,-0.054
17.863,0.007,-0.000,-29.162,-7.276,-0.046
17.873,0.006,0.010,-29.235,-7.279,-0.043
17.883,0.005,0.021,-29.310,-7.466,-0.025
17.893,0.005,0.024,-29.388,-7.703,-0.010
17.903,0.007,0.009,-29.465,-7.684,-0.021
17.913,0.009,0.008,-29.540,-7.573,-0.015
17.923,0.010,-0.004,-29.615,-7.534,-0.032
17.933,0.065,-0.560,-29.684,-7.084,-0.046
17.943,0.087,-0.797,-29.749,-6.683,-0.559
17.953,0.069,-0.756,-29.818,-6.859,-0.819
17.963,0.023,-0.552,-29.920,-9.082,-1.017
17.992,-0.063,0.066,-30.505,-21.557,-0.562
18.002,-0.077,0.231,-30.772,-25.005,-0.445
18.012,-0.083,0.352,-31.070,-28.175,-0.214
18.022,-0.080,0.416,-31.393,-30.918,-0.076
18.032,-0.069,0.466,-31.730,-32.763,0.021
18.042,-0.054,0.436,-32.066,-33.338,0.043
18.052,-0.036,0.370,-32.392,-32.872,0.042
18.062,-0.020,0.305,-32.706,-31.845,0.034
18.072,-0.008,0.262,-33.013,-31.119,0.037
18.082,0.004,0.198,-33.319,-30.775,0.025
18.092,0.013,0.155,-33.618,-30.149,0.009
18.102,0.019,0.116,-33.907,-29.378,-0.019
18.112,0.023,0.090,-34.193,-28.839,-0.039
18.122,0.025,0.064,-34.480,-28.762,-0.051
18.132,0.026,0.062,-34.768,-28.762,-0.060
18.142,0.026,0.061,-35.056,-28.788,-0.061
18.152,0.026,0.061,-35.338,-28.358,-0.079
18.162,0.024,0.075,-35.615,-27.935,-0.055
18.172,0.023,0.082,-35.891,-27.699,-0.044
18.182,0.021,0.108,-36.169,-27.789,-0.026
18.192,0.020,0.121,-36.448,-27.850,-0.006
18.202,0.021,0.123,-36.724,-27.695,0.015
18.212,0.023,0.131,-36.995,-27.334,0.018
18.222,0.025,0.126,-37.262,-26.854,0.034
18.232,0.029,0.114,-37.523,-26.413,0.050
18.242,0.034,0.084,-37.783,-26.120,0.040
18.252,0.034,0.077,-38.035,-25.478,0.025
18.262,0.035,0.077,-38.282,-24.981,0.028
18.272,0.037,0.057,-38.523,-24.378,0.040
18.282,0.039,0.046,-38.755,-23.622,0.025
18.292,0.044,0.015,-38.982,-22.981,0.022
18.302,0.045,-0.014,-39.206,-22.594,-0.017
18.312,0.045,-0.030,-39.425,-22.127,-0.049
18.322,0.043,-0.038,-39.640,-21.721,-0.060
18.332,0.039,-0.024,-39.856,-21.606,-0.065
18.342,0.038,-0.018,-40.071,-21.596,-0.059
18.352,0.036,-0.014,-40.286,-21.490,-0.049
18.362,0.032,0.003,-40.502,-21.581,-0.038
18.372,0.032,0.026,-40.725,-22.049,-0.040
18.382,0.031,0.026,-40.947,-22.130,-0.023
18.392,0.030,0.031,-41.169,-22.226,-0.017
18.402,0.030,0.039,-41.390,-22.139,-0.031
18.412,0.031,0.048,-41.607,-21.796,-0.004
18.422,0.030,0.042,-41.817,-21.304,0.002
18.432,0.029,0.052,-42.026,-21.007,0.011
18.442,0.029,0.067,-42.232,-20.783,0.014
18.452,0.030,0.064,-42.438,-20.631,0.038
18.462,0.032,0.060,-42.641,-20.403,0.057
18.503,0.040,0.004,-43.376,-17.524,0.029
18.513,0.042,-0.012,-43.540,-16.772,0.029
18.523,0.042,-0.023,-43.700,-16.275,0.012
18.533,0.040,-0.024,-43.854,-15.655,0.003
18.543,0.040,-0.013,-44.008,-15.491,0.026
18.553,0.040,-0.039,-44.156,-15.067,0.009
18.563,0.040,-0.017,-44.299,-14.557,0.007
18.573,0.039,-0.034,-44.440,-14.205,-0.010
18.583,0.041,-0.038,-44.575,-13.734,0.028
18.593,0.039,-0.070,-44.703,-13.144,0.001
18.603,0.037,-0.044,-44.826,-12.565,-0.013
18.613,0.034,-0.045,-44.947,-12.263,-0.030
18.623,0.032,-0.025,-45.068,-12.119,-0.007
18.633,0.032,-0.036,-45.188,-12.095,-0.005
18.643,0.032,-0.034,-45.305,-11.777,-0.023
18.653,0.031,-0.037,-45.418,-11.495,-0.019
18.663,0.028,-0.025,-45.533,-11.501,-0.022
18.673,0.027,-0.009,-45.647,-11.447,-0.002
18.683,0.029,-0.029,-45.761,-11.365,0.003
18.693,0.032,-0.047,-45.868,-10.946,-0.023
18.703,0.029,-0.040,-45.971,-10.549,-0.030
18.713,0.026,-0.020,-46.073,-10.268,-0.025
18.723,0.022,0.004,-46.179,-10.501,-0.010
18.733,0.025,0.003,-46.284,-10.536,0.014
18.743,0.029,-0.030,-46.385,-10.208,0.008
18.753,0.028,-0.035,-46.480,-9.720,-0.020
18.763,0.025,-0.027,-46.571,-9.349,-0.024
18.773,0.023,-0.006,-46.664,-9.326,0.001
18.783,0.020,0.016,-46.759,-9.427,0.031
18.793,0.023,0.007,-46.858,-9.714,0.042
18.803,0.025,-0.003,-46.950,-9.375,0.035
18.813,0.025,-0.010,-47.040,-9.106,0.022
18.823,0.026,-0.012,-47.126,-8.788,0.024
18.833,0.028,-0.028,-47.209,-8.503,0.017
18.843,0.027,-0.027,-47.286,-7.946,0.006
18.853,0.028,-0.037,-47.363,-7.789,0.013
18.863,0.030,-0.056,-47.435,-7.378,-0.000
18.873,0.029,-0.062,-47.499,-6.754,-0.021
18.883,0.024,-0.033,-47.562,-6.440,-0.012
18.893,0.021,-0.012,-47.629,-6.599,0.015
18.903,0.022,-0.017,-47.696,-6.700,0.022
18.913,0.025,-0.037,-47.758,-6.350,0.014
18.923,0.027,-0.058,-47.814,-5.824,-0.004
18.933,0.027,-0.068,-47.863,-5.188,-0.021
18.943,0.026,-0.074,-47.908,-4.745,-0.034
18.953,0.025,-0.077,-47.949,-4.318,-0.033
18.963,0.025,-0.086,-47.987,-3.996,-0.045
18.973,0.022,-0.074,-48.023,-3.735,-0.050
18.983,0.016,-0.048,-48.060,-3.672,-0.048
19.012,0.008,0.035,-48.193,-4.642,0.042
19.022,0.012,0.019,-48.241,-4.744,0.053
19.032,0.017,-0.012,-48.285,-4.496,0.048
19.042,0.020,-0.038,-48.318,-3.721,0.013
19.052,0.022,-0.054,-48.346,-3.108,-0.006
19.062,0.021,-0.062,-48.370,-2.596,-0.013
19.072,0.021,-0.066,-48.391,-2.246,-0.019
19.082,0.020,-0.064,-48.409,-1.976,-0.020
19.092,0.018,-0.067,-48.425,-1.707,-0.019
19.102,0.016,-0.059,-48.441,-1.643,-0.029
19.112,0.013,-0.039,-48.455,-1.519,-0.027
19.122,0.011,-0.029,-48.473,-1.682,-0.003
19.132,0.010,-0.018,-48.490,-1.711,0.011
19.142,0.011,-0.016,-48.508,-1.747,0.009
19.152,0.012,-0.026,-48.524,-1.630,0.015
19.162,0.013,-0.033,-48.537,-1.464,0.002
19.172,0.013,-0.036,-48.547,-1.127,-0.003
19.182,0.013,-0.041,-48.554,-0.861,-0.006
19.192,0.013,-0.045,-48.562,-0.773,-0.011
19.202,0.012,-0.047,-48.565,-0.513,-0.016
19.212,0.012,-0.049,-48.567,-0.273,-0.021
19.222,0.011,-0.047,-48.568,-0.142,-0.021
19.232,0.011,-0.055,-48.569,-0.099,-0.025
19.242,0.010,-0.051,-48.567,0.069,-0.029
19.252,0.009,-0.052,-48.564,0.202,-0.030
19.262,0.008,-0.048,-48.562,0.246,-0.031
19.272,0.007,-0.045,-48.557,0.363,-0.035
19.282,0.006,-0.042,-48.553,0.402,-0.031
19.292,0.004,-0.025,-48.550,0.339,-0.029
19.302,0.002,-0.013,-48.548,0.266,-0.019
19.312,0.001,-0.004,-48.550,-0.039,0.001
19.322,0.001,0.001,-48.552,-0.141,0.005
19.332,0.002,0.002,-48.553,-0.124,0.011
19.342,0.003,-0.004,-48.555,-0.169,0.010
19.352,0.004,-0.008,-48.554,0.020,0.015
19.362,0.005,-0.015,-48.550,0.211,0.010
19.372,0.005,-0.015,-48.546,0.403,0.004
19.382,0.005,-0.018,-48.541,0.415,0.009
19.392,0.006,-0.024,-48.534,0.599,0.005
19.402,0.006,-0.023,-48.527,0.685,0.001
19.412,0.006,-0.026,-48.519,0.765,-0.004
19.422,0.005,-0.024,-48.510,0.869,-0.002
19.432,0.004,-0.023,-48.500,0.929,-0.005
19.442,0.004,-0.018,-48.491,0.898,0.002
19.452,0.004,-0.024,-48.483,0.887,-0.001
19.462,0.005,-0.034,-48.473,0.961,-0.009
19.472,0.006,-0.044,-48.459,1.215,-0.021
19.482,0.005,-0.042,-48.445,1.376,-0.031
19.492,0.004,-0.042,-48.430,1.456,-0.029
19.502,0.004,-0.041,-48.415,1.457,-0.031
19.601,-0.004,0.054,-48.357,-0.310,0.064
19.611,-0.001,0.040,-48.360,-0.282,0.063
19.621,0.003,0.021,-48.358,0.034,0.061
19.631,0.006,-0.000,-48.353,0.292,0.034
19.641,0.007,-0.012,-48.345,0.634,0.024
19.651,0.008,-0.021,-48.335,0.902,0.023
19.661,0.009,-0.036,-48.323,1.119,0.004
19.671,0.010,-0.052,-48.307,1.395,-0.016
19.681,0.009,-0.062,-48.289,1.667,-0.025
19.691,0.008,-0.058,-48.271,1.756,-0.037
19.701,0.006,-0.059,-48.252,1.861,-0.045
19.711,0.004,-0.051,-48.235,1.773,-0.042
19.721,0.003,-0.048,-48.220,1.615,-0.040
19.731,0.002,-0.042,-48.205,1.534,-0.046
19.741,0.000,-0.041,-48.191,1.407,-0.050
19.751,-0.001,-0.035,-48.179,1.312,-0.045
19.761,-0.003,-0.023,-48.166,1.256,-0.040
19.771,-0.006,0.005,-48.160,0.853,-0.032
19.781,-0.008,0.023,-48.159,0.361,-0.006
19.791,-0.010,0.043,-48.160,-0.007,0.009
19.801,-0.008,0.044,-48.166,-0.361,0.034
19.811,-0.005,0.036,-48.170,-0.401,0.018
19.821,-0.004,0.026,-48.173,-0.313,0.020
19.831,-0.003,0.029,-48.176,-0.309,0.021
19.841,-0.003,0.027,-48.179,-0.333,0.030
19.851,-0.002,0.026,-48.184,-0.418,0.031
19.861,0.001,0.009,-48.186,-0.293,0.026
19.871,0.004,-0.010,-48.186,-0.072,0.013
19.881,0.004,-0.020,-48.183,0.181,-0.005
19.891,0.003,-0.017,-48.179,0.316,-0.008
19.901,0.001,-0.005,-48.177,0.259,-0.006
19.911,0.000,0.004,-48.177,0.035,0.006
19.921,0.000,0.003,-48.178,-0.039,0.009
19.931,-0.000,0.012,-48.182,-0.243,0.009
19.941,-0.000,0.009,-48.185,-0.337,0.017
19.951,0.001,0.005,-48.188,-0.291,0.007
19.961,0.001,0.005,-48.192,-0.378,0.018
19.971,0.033,-0.140,-48.195,-0.305,0.005
19.981,0.118,-0.811,-48.194,-0.051,-0.576
19.991,0.126,-1.014,-48.200,-0.375,-1.011
20.001,0.111,-1.179,-48.241,-2.861,-1.241
20.011,0.077,-1.148,-48.338,-7.466,-1.459
20.021,0.023,-0.898,-48.503,-13.466,-1.508
20.031,-0.030,-0.664,-48.741,-20.325,-1.405
20.041,-0.074,-0.329,-49.042,-26.886,-1.272
20.051,-0.102,-0.098,-49.397,-32.620,-1.130
20.061,-0.126,0.089,-49.795,-37.407,-1.032
20.071,-0.140,0.294,-50.238,-41.975,-0.781
20.081,-0.150,0.423,-50.723,-46.391,-0.587
20.110,-0.122,0.653,-52.320,-54.507,-0.249
20.120,-0.108,0.650,-52.892,-56.288,-0.183
20.130,-0.095,0.640,-53.487,-58.467,-0.094
20.140,-0.087,0.672,-54.102,-60.446,0.018
20.150,-0.080,0.782,-54.712,-60.876,0.063
20.160,-0.076,0.831,-55.343,-62.298,0.291
20.170,-0.070,0.950,-55.976,-63.001,0.438
20.180,-0.056,1.019,-56.622,-64.054,0.621
20.190,-0.015,0.865,-57.263,-64.086,0.712
20.200,0.038,0.573,-57.844,-60.113,0.593
20.210,0.084,0.246,-58.376,-55.524,0.253
20.220,0.110,-0.042,-58.857,-50.516,0.015
20.230,0.116,-0.151,-59.299,-46.345,-0.103
20.240,0.110,-0.204,-59.738,-44.719,-0.207
20.250,0.094,-0.168,-60.180,-44.330,-0.260
20.260,0.077,-0.112,-60.619,-44.076,-0.214
20.270,0.060,0.004,-61.066,-44.477,-0.200
20.280,0.045,0.082,-61.526,-45.505,-0.135
20.290,0.035,0.173,-61.993,-46.283,-0.083
20.300,0.027,0.237,-62.463,-46.772,0.026
20.310,0.028,0.272,-62.938,-47.254,0.093
20.320,0.035,0.259,-63.411,-47.278,0.106
20.330,0.047,0.205,-63.863,-45.941,0.114
20.340,0.059,0.131,-64.300,-44.434,0.041
20.350,0.067,0.056,-64.731,-43.497,-0.012
20.360,0.072,-0.003,-65.150,-42.468,-0.060
20.370,0.071,-0.016,-65.558,-41.361,-0.076
20.380,0.069,-0.024,-65.974,-41.501,-0.146
20.390,0.060,-0.010,-66.392,-41.698,-0.124
20.400,0.053,0.037,-66.809,-41.738,-0.106
20.410,0.045,0.118,-67.223,-41.473,-0.038
20.420,0.040,0.157,-67.644,-41.871,-0.035
20.430,0.035,0.211,-68.065,-42.029,0.076
20.440,0.036,0.262,-68.480,-41.726,0.125
20.450,0.040,0.248,-68.893,-41.395,0.200
20.460,0.051,0.238,-69.298,-40.856,0.209
20.470,0.065,0.139,-69.683,-39.262,0.158
20.480,0.074,0.059,-70.040,-36.906,0.093
20.490,0.078,0.010,-70.378,-34.826,0.044
20.500,0.080,-0.019,-70.710,-33.698,0.062
20.510,0.084,-0.045,-71.036,-32.966,0.027
20.520,0.083,-0.069,-71.350,-31.951,-0.017
20.530,0.080,-0.083,-71.656,-31.052,-0.028
20.540,0.077,-0.086,-71.961,-30.676,-0.044
20.550,0.073,-0.079,-72.265,-30.474,-0.051
20.560,0.068,-0.067,-72.570,-30.483,-0.062
20.570,0.064,-0.045,-72.871,-30.284,-0.061
20.580,0.058,-0.006,-73.166,-29.728,-0.037
20.590,0.053,0.027,-73.457,-29.314,-0.014
20.629,0.049,0.109,-74.606,-28.155,0.121
20.639,0.052,0.098,-74.872,-27.103,0.155
20.649,0.056,0.086,-75.129,-26.189,0.158
20.659,0.062,0.045,-75.376,-25.169,0.144
20.669,0.068,0.007,-75.609,-23.940,0.121
20.679,0.071,-0.026,-75.827,-22.553,0.100
20.689,0.071,-0.042,-76.034,-21.267,0.100
20.699,0.072,-0.055,-76.228,-20.025,0.073
20.709,0.072,-0.072,-76.412,-18.971,0.068
20.719,0.072,-0.091,-76.589,-18.109,0.055
20.729,0.072,-0.104,-76.755,-17.134,0.028
20.739,0.071,-0.114,-76.916,-16.396,-0.005
20.749,0.067,-0.113,-77.073,-15.950,-0.017
20.759,0.064,-0.115,-77.223,-15.338,-0.002
20.769,0.060,-0.107,-77.371,-14.957,-0.025
20.779,0.056,-0.095,-77.516,-14.674,-0.001
20.789,0.050,-0.066,-77.659,-14.425,0.012
20.799,0.049,-0.066,-77.802,-14.296,0.032
20.809,0.047,-0.032,-77.939,-13.914,0.008
20.819,0.044,-0.042,-78.075,-13.693,0.058
20.829,0.043,-0.011,-78.210,-13.590,0.031
20.839,0.044,-0.035,-78.340,-13.195,0.061
20.849,0.045,-0.027,-78.463,-12.632,0.043
20.859,0.045,-0.036,-78.585,-12.289,0.055
20.869,0.045,-0.030,-78.697,-11.587,0.048
20.879,0.044,-0.033,-78.806,-11.123,0.062
20.889,0.046,-0.053,-78.908,-10.535,0.066
20.899,0.045,-0.045,-79.003,-9.851,0.049
20.909,0.042,-0.033,-79.096,-9.446,0.074
20.919,0.043,-0.029,-79.181,-8.824,0.081
20.929,0.046,-0.054,-79.257,-8.029,0.068
20.939,0.046,-0.062,-79.327,-7.329,0.061
20.949,0.046,-0.076,-79.389,-6.560,0.057
20.959,0.047,-0.084,-79.443,-5.791,0.042
20.969,0.045,-0.086,-79.489,-4.999,0.042
20.979,0.041,-0.063,-79.535,-4.708,0.059
20.989,0.037,-0.037,-79.579,-4.559,0.076
20.999,0.034,-0.018,-79.624,-4.513,0.105
21.009,0.035,-0.017,-79.667,-4.317,0.118
21.019,0.039,-0.043,-79.698,-3.561,0.100
21.029,0.042,-0.073,-79.720,-2.644,0.084
21.039,0.045,-0.101,-79.734,-1.802,0.058
21.049,0.045,-0.119,-79.737,-0.780,0.036
21.059,0.044,-0.130,-79.733,-0.030,0.019
21.069,0.041,-0.129,-79.723,0.680,0.009
21.079,0.038,-0.125,-79.710,1.070,0.014
21.089,0.036,-0.125,-79.695,1.354,0.012
21.099,0.033,-0.119,-79.675,1.781,0.002
21.109,0.031,-0.110,-79.652,2.128,0.013
21.138,0.022,-0.077,-79.576,2.603,0.020
21.148,0.019,-0.054,-79.551,2.531,0.047
21.158,0.017,-0.033,-79.525,2.557,0.057
21.168,0.015,-0.015,-79.500,2.540,0.082
21.178,0.015,-0.003,-79.474,2.560,0.102
21.188,0.015,0.002,-79.448,2.643,0.115
21.198,0.017,-0.005,-79.416,2.952,0.120
21.208,0.018,-0.007,-79.382,3.310,0.121
21.218,0.020,-0.013,-79.343,3.686,0.122
21.228,0.021,-0.024,-79.300,4.092,0.123
21.238,0.024,-0.035,-79.250,4.662,0.114
21.248,0.027,-0.072,-79.194,5.313,0.095
21.258,0.031,-0.106,-79.127,6.245,0.063
21.268,0.031,-0.130,-79.052,7.093,0.034
21.278,0.026,-0.117,-78.973,7.629,0.035
21.288,0.023,-0.103,-78.895,7.734,0.043
21.298,0.023,-0.110,-78.814,7.948,0.030
21.308,0.020,-0.103,-78.731,8.221,0.020
21.318,0.017,-0.093,-78.651,8.084,0.034
21.328,0.016,-0.090,-78.567,8.295,0.031
21.338,0.014,-0.082,-78.484,8.286,0.032
21.348,0.009,-0.056,-78.404,8.105,0.044
21.358,0.008,-0.045,-78.327,7.789,0.064
21.368,0.011,-0.060,-78.245,8.069,0.045
21.378,0.012,-0.081,-78.162,8.238,0.032
21.388,0.013,-0.089,-78.076,8.498,0.013
21.398,0.013,-0.104,-77.986,8.790,0.003
21.408,0.009,-0.091,-77.897,8.911,-0.010
21.418,0.005,-0.066,-77.813,8.569,0.020
21.428,0.005,-0.058,-77.731,8.302,0.028
21.438,0.006,-0.066,-77.647,8.393,0.016
21.448,0.006,-0.073,-77.561,8.499,0.005
21.458,0.005,-0.077,-77.472,8.790,-0.004
21.468,0.002,-0.058,-77.388,8.503,0.004
21.478,-0.003,-0.024,-77.306,8.306,0.028
21.488,-0.005,-0.006,-77.232,7.728,0.050
21.498,-0.004,-0.001,-77.160,7.383,0.060
21.508,-0.000,-0.022,-77.083,7.550,0.041
21.518,0.002,-0.047,-77.004,7.783,0.027
21.528,0.004,-0.059,-76.923,7.989,0.012
21.538,0.002,-0.053,-76.842,8.107,0.006
21.548,-0.001,-0.040,-76.763,7.918,0.020
21.558,-0.004,-0.009,-76.691,7.497,0.046
21.568,-0.005,0.002,-76.621,7.152,0.055
21.578,-0.002,-0.011,-76.551,7.038,0.057
21.588,0.001,-0.031,-76.479,7.178,0.036
21.598,0.002,-0.046,-76.402,7.479,0.014
21.608,0.000,-0.039,-76.326,7.555,0.012
21.618,-0.002,-0.026,-76.253,7.376,0.028
21.628,-0.003,-0.011,-76.184,7.112,0.040
21.669,0.004,-0.064,-75.898,7.499,0.002
21.679,0.005,-0.076,-75.816,7.945,-0.014
21.689,0.004,-0.088,-75.734,8.118,-0.026
21.699,0.001,-0.077,-75.650,8.328,-0.037
21.709,-0.004,-0.050,-75.574,7.840,-0.015
21.719,-0.007,-0.023,-75.500,7.520,0.002
21.729,-0.007,-0.014,-75.432,7.034,0.019
21.739,-0.005,-0.028,-75.362,7.023,-0.001
21.749,-0.005,-0.033,-75.293,6.941,0.000
21.759,-0.005,-0.032,-75.221,7.097,-0.008
21.769,-0.006,-0.030,-75.153,6.940,-0.007
21.779,-0.010,-0.003,-75.088,6.660,0.011
21.789,-0.014,0.033,-75.029,6.105,0.040
21.799,-0.015,0.056,-74.977,5.539,0.070
21.809,-0.010,0.042,-74.926,5.248,0.078
21.819,-0.003,0.005,-74.869,5.559,0.039
21.829,0.003,-0.051,-74.803,6.250,-0.005
21.839,0.004,-0.082,-74.731,6.839,-0.030
21.849,0.004,-0.093,-74.657,7.237,-0.055
21.859,0.000,-0.087,-74.582,7.422,-0.068
21.869,-0.006,-0.048,-74.511,7.180,-0.043
21.879,-0.012,-0.006,-74.451,6.380,-0.009
21.889,-0.015,0.019,-74.398,5.657,0.016
21.899,-0.014,0.026,-74.347,5.335,0.021
21.909,-0.011,0.011,-74.295,5.207,0.014
21.919,-0.007,-0.011,-74.241,5.366,-0.007
21.929,-0.004,-0.041,-74.183,5.675,-0.018
21.939,-0.004,-0.049,-74.121,5.980,-0.042
21.949,-0.004,-0.058,-74.061,6.007,-0.048
21.959,-0.007,-0.044,-74.001,6.017,-0.042
21.969,-0.012,-0.011,-73.946,5.635,-0.028
21.979,-0.015,0.020,-73.900,4.947,-0.005
21.989,-0.017,0.036,-73.859,4.384,0.019
21.999,-0.016,0.049,-73.823,3.891,0.037
22.009,-0.014,0.044,-73.786,3.750,0.033
22.019,-0.011,0.033,-73.750,3.655,0.035
22.029,-0.009,0.018,-73.712,3.750,0.022
22.039,-0.005,0.000,-73.672,3.935,0.014
22.049,-0.003,-0.023,-73.628,4.251,-0.013
22.059,-0.003,-0.031,-73.584,4.356,-0.018
22.069,-0.004,-0.031,-73.540,4.340,-0.028
22.079,-0.004,-0.033,-73.498,4.260,-0.027
22.089,-0.006,-0.028,-73.455,4.257,-0.029
22.099,-0.006,-0.032,-73.417,4.002,-0.038
22.109,-0.007,-0.024,-73.377,3.992,-0.046
22.119,-0.010,-0.014,-73.343,3.581,-0.036
22.129,-0.012,-0.003,-73.312,3.289,-0.030
22.139,-0.013,0.014,-73.285,2.861,-0.014
22.149,-0.013,0.017,-73.260,2.615,-0.007
22.159,-0.012,0.016,-73.238,2.381,-0.006
22.188,-0.014,0.049,-73.186,1.520,0.013
22.198,-0.014,0.063,-73.176,1.171,0.037
22.208,-0.013,0.067,-73.169,0.825,0.049
22.218,-0.011,0.063,-73.163,0.684,0.053
22.228,-0.010,0.059,-73.158,0.586,0.052
22.238,-0.008,0.058,-73.154,0.477,0.053
22.248,-0.007,0.059,-73.151,0.363,0.060
22.258,-0.005,0.052,-73.147,0.326,0.065
22.268,-0.003,0.043,-73.144,0.339,0.057
22.278,-0.001,0.031,-73.138,0.496,0.043
22.288,-0.001,0.027,-73.132,0.574,0.046
22.298,-0.000,0.021,-73.128,0.473,0.045
22.308,0.000,0.022,-73.123,0.464,0.044
22.318,0.001,0.023,-73.119,0.436,0.039
22.328,0.001,0.013,-73.115,0.401,0.041
22.338,0.002,0.009,-73.111,0.415,0.030
22.348,-0.010,0.053,-73.106,0.445,0.016
22.358,-0.059,0.468,-73.106,0.199,0.503
22.368,-0.092,0.961,-73.101,0.348,1.012
22.378,-0.083,1.109,-73.070,2.187,1.335
22.388,-0.036,0.981,-72.981,6.688,1.469
22.398,0.024,0.615,-72.817,13.197,1.354
22.408,0.070,0.271,-72.578,20.299,1.082
22.418,0.107,-0.018,-72.273,27.121,0.872
22.428,0.131,-0.278,-71.915,32.894,0.654
22.438,0.147,-0.494,-71.515,37.605,0.411
22.448,0.154,-0.715,-71.074,41.987,0.078
22.458,0.154,-0.917,-70.597,45.800,-0.133
22.468,0.138,-1.006,-70.107,47.915,-0.355
22.478,0.107,-0.972,-69.618,48.533,-0.475
22.488,0.064,-0.829,-69.138,48.225,-0.505
22.498,0.021,-0.576,-68.696,45.522,-0.356
22.508,-0.012,-0.397,-68.299,41.661,-0.250
22.518,-0.035,-0.255,-67.925,38.814,-0.187
22.528,-0.050,-0.139,-67.572,36.485,-0.121
22.538,-0.059,-0.063,-67.237,34.458,-0.019
22.548,-0.060,-0.025,-66.916,32.908,0.022
22.558,-0.057,-0.018,-66.601,31.985,0.025
22.568,-0.052,-0.025,-66.280,32.010,0.024
22.578,-0.048,-0.046,-65.960,32.018,0.010
22.588,-0.043,-0.060,-65.645,31.690,0.014
22.598,-0.038,-0.089,-65.337,31.097,-0.014
22.608,-0.034,-0.123,-65.032,30.712,-0.045
22.618,-0.033,-0.143,-64.723,30.791,-0.084
22.628,-0.033,-0.153,-64.421,30.435,-0.096
22.638,-0.036,-0.146,-64.129,29.576,-0.114
22.648,-0.039,-0.137,-63.849,28.573,-0.121
22.658,-0.045,-0.107,-63.577,27.651,-0.121
22.668,-0.049,-0.076,-63.313,26.785,-0.085
22.678,-0.051,-0.052,-63.055,26.112,-0.071
22.783,-0.042,-0.018,-60.819,21.202,-0.014
22.793,-0.043,-0.017,-60.616,20.565,-0.049
22.803,-0.044,-0.001,-60.418,20.050,-0.055
22.813,-0.044,-0.009,-60.223,19.634,-0.035
22.823,-0.043,-0.012,-60.034,19.184,-0.035
22.833,-0.043,-0.007,-59.850,18.664,-0.037
22.843,-0.042,-0.012,-59.671,18.189,-0.032
22.853,-0.042,-0.004,-59.498,17.563,-0.043
22.863,-0.040,-0.021,-59.336,16.673,-0.041
22.873,-0.037,-0.047,-59.177,16.176,-0.068
22.883,-0.039,-0.032,-59.023,15.665,-0.093
22.893,-0.040,-0.034,-58.876,14.959,-0.104
22.903,-0.041,-0.011,-58.738,14.244,-0.090
22.913,-0.042,-0.023,-58.605,13.568,-0.110
22.923,-0.046,0.027,-58.483,12.705,-0.079
22.933,-0.047,0.030,-58.371,11.673,-0.085
22.943,-0.045,0.037,-58.267,10.796,-0.066
22.953,-0.042,0.015,-58.169,10.142,-0.075
22.963,-0.041,0.011,-58.075,9.646,-0.090
22.973,-0.042,0.027,-57.986,9.170,-0.096
22.983,-0.045,0.057,-57.909,8.223,-0.079
22.993,-0.048,0.089,-57.841,7.214,-0.042
23.003,-0.045,0.096,-57.784,6.215,-0.018
23.013,-0.039,0.067,-57.733,5.471,-0.026
23.023,-0.034,0.040,-57.682,5.277,-0.040
23.033,-0.031,0.016,-57.631,5.134,-0.077
23.043,-0.032,0.020,-57.583,4.879,-0.094
23.053,-0.033,0.034,-57.540,4.492,-0.085
23.063,-0.034,0.043,-57.506,3.771,-0.074
23.073,-0.035,0.057,-57.477,3.227,-0.071
23.083,-0.037,0.073,-57.457,2.404,-0.058
23.093,-0.039,0.094,-57.445,1.620,-0.036
23.103,-0.039,0.118,-57.442,0.693,-0.022
23.113,-0.037,0.126,-57.446,0.001,-0.000
23.123,-0.033,0.119,-57.456,-0.664,0.011
23.133,-0.031,0.116,-57.469,-1.091,0.009
23.143,-0.028,0.108,-57.485,-1.462,0.013
23.153,-0.025,0.100,-57.503,-1.690,0.009
23.163,-0.022,0.089,-57.526,-2.096,0.005
23.173,-0.020,0.084,-57.551,-2.336,-0.003
23.183,-0.018,0.069,-57.577,-2.516,-0.003
23.193,-0.013,0.036,-57.605,-2.732,-0.018
23.203,-0.009,0.005,-57.630,-2.572,-0.048
23.213,-0.005,-0.034,-57.653,-2.366,-0.099
23.223,-0.003,-0.065,-57.673,-2.144,-0.128
23.233,-0.002,-0.095,-57.691,-1.891,-0.169
23.243,-0.003,-0.119,-57.709,-1.831,-0.205
23.253,-0.006,-0.124,-57.727,-1.812,-0.245
23.283,-0.021,-0.072,-57.808,-3.104,-0.286
23.293,-0.030,-0.018,-57.854,-4.102,-0.275
23.303,-0.038,0.038,-57.915,-5.435,-0.216
23.313,-0.044,0.095,-57.992,-6.896,-0.164
23.323,-0.047,0.150,-58.084,-8.438,-0.131
23.333,-0.043,0.172,-58.188,-9.788,-0.082
23.343,0.001,-0.098,-58.303,-10.888,-0.036
23.353,0.047,-0.463,-58.415,-11.093,-0.422
23.363,0.085,-0.886,-58.529,-11.344,-0.911
23.373,0.088,-1.222,-58.671,-13.238,-1.427
23.383,0.056,-1.229,-58.868,-17.499,-1.793
23.393,0.008,-1.081,-59.127,-23.143,-1.922
23.403,-0.036,-0.895,-59.449,-29.158,-1.943
23.413,-0.069,-0.692,-59.828,-34.960,-1.943
23.423,-0.097,-0.566,-60.252,-39.947,-1.943
23.433,-0.119,-0.427,-60.707,-43.647,-1.899
23.443,-0.139,-0.310,-61.195,-47.114,-1.788
23.453,-0.150,-0.207,-61.717,-50.507,-1.746
23.463,-0.159,-0.098,-62.262,-53.107,-1.691
23.473,-0.162,-0.043,-62.829,-55.523,-1.604
23.483,-0.158,-0.018,-63.420,-57.935,-1.555
23.493,-0.148,-0.032,-64.010,-58.637,-1.581
23.503,-0.134,-0.187,-64.620,-60.200,-1.663
23.513,-0.122,-0.250,-65.241,-61.421,-1.679
23.523,-0.113,-0.356,-65.867,-62.241,-1.787
23.533,-0.110,-0.428,-66.515,-63.929,-1.953
23.543,-0.115,-0.460,-67.155,-64.005,-2.046
23.553,-0.121,-0.440,-67.804,-64.594,-2.083
23.563,-0.127,-0.421,-68.458,-65.083,-2.103
23.573,-0.130,-0.446,-69.119,-65.836,-2.181
23.583,-0.124,-0.521,-69.792,-66.792,-2.238
23.593,-0.115,-0.675,-70.450,-66.132,-2.357
23.603,-0.105,-0.848,-71.120,-66.717,-2.521
23.613,-0.097,-1.060,-71.789,-66.848,-2.739
23.623,-0.095,-1.274,-72.466,-67.442,-3.030
23.633,-0.105,-1.439,-73.142,-67.520,-3.351
23.643,-0.122,-1.477,-73.809,-66.979,-3.533
23.653,-0.142,-1.502,-74.485,-67.356,-3.644
23.663,-0.153,-1.606,-75.158,-67.348,-3.744
23.673,-0.157,-1.759,-75.844,-68.183,-3.928
23.683,-0.159,-2.030,-76.517,-67.574,-4.146
23.693,-0.157,-2.336,-77.192,-67.562,-4.375
23.703,-0.155,-2.498,-77.871,-67.769,-4.668
23.713,-0.156,-2.498,-78.548,-67.744,-4.722
23.723,-0.170,-2.498,-79.234,-68.276,-4.741
23.733,-0.191,-2.498,-79.900,-67.197,-4.792
23.743,-0.216,-2.498,-80.577,-67.467,-4.849
23.783,-0.210,-2.498,-83.268,-66.840,-4.919
23.793,-0.172,-2.498,-83.939,-67.013,-4.832
23.803,-0.156,-2.498,-84.601,-66.495,-4.727
23.813,-0.188,1.570,-85.300,-68.754,-4.636
23.823,-0.056,0.922,-86.040,-72.188,-0.051
23.833,-0.114,0.630,-86.772,-72.878,0.354
23.843,-0.119,0.293,-87.491,-72.239,-0.626
23.853,-0.040,-1.187,-88.210,-72.036,-1.362
23.863,-0.100,-0.475,-88.903,-70.151,-4.329
23.873,-0.214,0.337,-89.608,-70.381,-1.137
23.883,-0.203,-0.144,-90.319,-70.872,-1.648
23.893,-0.308,0.125,-91.023,-70.541,-2.639
23.903,-0.381,0.290,-91.740,-71.303,-1.602
23.913,-0.440,0.147,-92.341,-69.903,-2.872
23.922,-0.459,0.183,-92.341,-69.438,-2.817
23.932,-0.471,-0.135,-92.341,-69.282,-3.153
23.942,-0.485,0.011,-92.341,-69.231,-3.285
23.952,-0.507,-0.117,-92.341,-69.213,-3.408
23.962,-0.544,-0.045,-92.341,-69.208,-3.548
23.972,-0.578,0.070,-92.341,-69.206,-3.563
23.982,-0.596,0.077,-92.341,-69.205,-3.584
23.994,-0.609,-0.008,-92.341,-69.205,-3.691
24.004,-0.627,-0.004,-92.341,-69.205,-3.800
24.014,-0.643,0.013,-92.341,-69.205,-3.854
24.024,-0.654,-0.013,-92.341,-69.205,-3.887
24.034,-0.665,-0.040,-92.341,-69.205,-3.963
24.044,-0.679,-0.025,-92.341,-69.205,-4.019
24.054,-0.692,0.015,-92.341,-69.205,-4.045
24.064,-0.700,0.008,-92.341,-69.205,-4.069
24.074,-0.709,0.010,-92.341,-69.205,-4.097
24.084,-0.717,0.020,-92.341,-69.205,-4.127
24.094,-0.723,0.010,-92.341,-69.205,-4.144
24.104,-0.727,-0.003,-92.341,-69.205,-4.169
24.114,-0.732,-0.004,-92.341,-69.205,-4.191
24.124,-0.737,-0.000,-92.341,-69.205,-4.215
24.134,-0.742,-0.007,-92.341,-69.205,-4.240
24.144,-0.746,-0.011,-92.341,-69.205,-4.255
24.154,-0.750,-0.005,-92.341,-69.205,-4.270
24.164,-0.754,0.004,-92.341,-69.205,-4.276
24.174,-0.758,0.001,-92.341,-69.205,-4.283
24.184,-0.761,0.015,-92.341,-69.205,-4.285
24.194,-0.763,0.008,-92.341,-69.205,-4.285
24.204,-0.765,-0.003,-92.341,-69.205,-4.294
24.214,-0.767,0.005,-92.341,-69.205,-4.299
24.224,-0.768,0.007,-92.341,-69.205,-4.317
24.234,-0.769,-0.001,-92.341,-69.205,-4.322
24.244,-0.771,-0.013,-92.341,-69.205,-4.334
24.270,-0.773,-0.003,-92.341,-69.205,-4.349
24.280,-0.775,-0.005,-92.341,-69.205,-4.340
24.290,-0.776,-0.004,-92.341,-69.205,-4.344
24.300,-0.777,0.005,-92.341,-69.205,-4.354
24.310,-0.778,0.008,-92.341,-69.205,-4.340
24.320,-0.780,-0.005,-92.341,-69.205,-4.365
24.330,-0.780,0.018,-92.341,-69.205,-4.367
24.340,-0.780,-0.007,-92.341,-69.205,-4.342
24.350,-0.780,-0.004,-92.341,-69.205,-4.372
24.360,-0.780,0.000,-92.341,-69.205,-4.349
24.370,-0.780,0.004,-92.341,-69.205,-4.370
24.380,-0.781,-0.013,-92.341,-69.205,-4.366
24.390,-0.781,-0.010,-92.341,-69.205,-4.378
24.400,-0.781,-0.008,-92.341,-69.205,-4.355
24.410,-0.782,0.006,-92.341,-69.205,-4.386
24.420,-0.783,-0.014,-92.341,-69.205,-4.368
24.430,-0.783,0.008,-92.341,-69.205,-4.375
24.440,-0.784,0.001,-92.341,-69.205,-4.368
24.450,-0.784,-0.002,-92.341,-69.205,-4.367
24.460,-0.784,0.014,-92.341,-69.205,-4.369
24.470,-0.784,0.000,-92.341,-69.205,-4.358
24.480,-0.784,0.008,-92.341,-69.205,-4.370
24.490,-0.784,0.006,-92.341,-69.205,-4.374
24.500,-0.784,-0.001,-92.341,-69.205,-4.370
24.510,-0.784,-0.003,-92.341,-69.205,-4.371
24.520,-0.783,-0.001,-92.341,-69.205,-4.372
24.530,-0.784,0.002,-92.341,-69.205,-4.375
24.540,-0.784,-0.001,-92.341,-69.205,-4.375
24.550,-0.783,-0.001,-92.341,-69.205,-4.372
24.560,-0.784,-0.005,-92.341,-69.205,-4.373
24.570,-0.784,0.001,-92.341,-69.205,-4.371
24.580,-0.784,-0.001,-92.341,-69.205,-4.376
24.590,-0.783,0.003,-92.341,-69.205,-4.374
24.600,-0.784,-0.001,-92.341,-69.205,-4.373
24.610,-0.784,0.004,-92.341,-69.205,-4.373
24.620,-0.784,0.003,-92.341,-69.205,-4.374
24.630,-0.784,-0.002,-92.341,-69.205,-4.372
24.640,-0.784,0.007,-92.341,-69.205,-4.374
24.650,-0.785,-0.003,-92.341,-69.205,-4.370
24.660,-0.785,0.002,-92.341,-69.205,-4.373
24.670,-0.785,0.000,-92.341,-69.205,-4.367
24.680,-0.784,-0.001,-92.341,-69.205,-4.372
24.690,-0.784,-0.001,-92.341,-69.205,-4.372
24.700,-0.784,0.004,-92.341,-69.205,-4.373
24.710,-0.785,-0.002,-92.341,-69.205,-4.373
24.720,-0.784,0.001,-92.341,-69.205,-4.374
24.730,-0.784,-0.002,-92.341,-69.205,-4.377
24.766,-0.783,-0.001,-92.341,-69.205,-4.373
24.776,-0.784,-0.004,-92.341,-69.205,-4.373
24.786,-0.784,0.006,-92.341,-69.205,-4.375
24.796,-0.785,-0.003,-92.341,-69.205,-4.367
24.806,-0.785,0.002,-92.341,-69.205,-4.378
24.816,-0.785,-0.006,-92.341,-69.205,-4.375
24.826,-0.785,-0.001,-92.341,-69.205,-4.382
24.836,-0.785,-0.000,-92.341,-69.205,-4.376
24.846,-0.785,0.004,-92.341,-69.205,-4.377
24.856,-0.785,-0.002,-92.341,-69.205,-4.373
24.866,-0.785,0.001,-92.341,-69.205,-4.377
24.876,-0.785,-0.001,-92.341,-69.205,-4.374
24.886,-0.784,0.001,-92.341,-69.205,-4.376
24.896,-0.784,-0.005,-92.341,-69.205,-4.374
24.906,-0.785,-0.006,-92.341,-69.205,-4.378
24.916,-0.784,-0.008,-92.341,-69.205,-4.381
24.926,-0.785,-0.006,-92.341,-69.205,-4.382
24.936,-0.784,-0.001,-92.341,-69.205,-4.381
24.946,-0.783,0.010,-92.341,-69.205,-4.374
24.956,-0.784,0.010,-92.341,-69.205,-4.359
24.966,-0.783,-0.005,-92.341,-69.205,-4.363
24.976,-0.784,-0.002,-92.341,-69.205,-4.374
24.986,-0.784,0.010,-92.341,-69.205,-4.375
24.996,-0.783,-0.012,-92.341,-69.205,-4.365
25.006,-0.785,-0.004,-92.341,-69.205,-4.383
25.016,-0.783,0.004,-92.341,-69.205,-4.378
25.026,-0.785,-0.000,-92.341,-69.205,-4.364
25.036,-0.783,-0.001,-92.341,-69.205,-4.376
25.046,-0.784,0.004,-92.341,-69.205,-4.372
25.056,-0.784,-0.007,-92.341,-69.205,-4.370
25.066,-0.784,0.007,-92.341,-69.205,-4.380
25.076,-0.785,-0.005,-92.341,-69.205,-4.366
25.086,-0.784,0.000,-92.341,-69.205,-4.381
25.096,-0.785,0.001,-92.341,-69.205,-4.373
25.106,-0.784,0.001,-92.341,-69.205,-4.374
25.116,-0.784,-0.001,-92.341,-69.205,-4.371
25.126,-0.785,0.002,-92.341,-69.205,-4.375
25.136,-0.784,-0.001,-92.341,-69.205,-4.374
25.146,-0.784,-0.010,-92.341,-69.205,-4.374
25.156,-0.786,0.019,-92.341,-69.205,-4.382
25.166,-0.783,-0.009,-92.341,-69.205,-4.363
25.176,-0.784,-0.015,-92.341,-69.205,-4.378
25.186,-0.787,0.026,-92.341,-69.205,-4.387
25.196,-0.781,-0.011,-92.341,-69.205,-4.358
25.206,-0.784,-0.019,-92.341,-69.205,-4.375
25.216,-0.787,0.023,-92.341,-69.205,-4.389
25.226,-0.783,-0.001,-92.341,-69.205,-4.361
25.254,-0.787,0.033,-92.341,-69.205,-4.368
25.264,-0.781,-0.021,-92.341,-69.205,-4.352
25.274,-0.783,-0.021,-92.341,-69.205,-4.392
25.284,-0.788,0.021,-92.341,-69.205,-4.382
25.294,-0.784,0.006,-92.341,-69.205,-4.361
25.304,-0.783,-0.010,-92.341,-69.205,-4.373
25.314,-0.786,0.009,-92.341,-69.205,-4.382
25.324,-0.783,-0.002,-92.341,-69.205,-4.366
25.334,-0.784,-0.012,-92.341,-69.205,-4.379
25.344,-0.786,0.005,-92.341,-69.205,-4.382
25.354,-0.785,0.007,-92.341,-69.205,-4.371
25.364,-0.783,-0.011,-92.341,-69.205,-4.374
25.374,-0.785,0.002,-92.341,-69.205,-4.380
25.384,-0.785,0.002,-92.341,-69.205,-4.373
25.394,-0.784,-0.010,-92.341,-69.205,-4.374
25.404,-0.785,0.002,-92.341,-69.205,-4.381
25.414,-0.785,0.010,-92.341,-69.205,-4.371
25.424,-0.784,-0.005,-92.341,-69.205,-4.371
25.434,-0.785,-0.004,-92.341,-69.205,-4.379
25.444,-0.785,0.010,-92.341,-69.205,-4.377
25.454,-0.783,-0.008,-92.341,-69.205,-4.369
25.464,-0.785,0.000,-92.341,-69.205,-4.380
25.474,-0.785,0.008,-92.341,-69.205,-4.375
25.484,-0.784,-0.007,-92.341,-69.205,-4.370
25.494,-0.784,-0.004,-92.341,-69.205,-4.378
25.504,-0.785,0.006,-92.341,-69.205,-4.375
25.514,-0.784,-0.002,-92.341,-69.205,-4.371
25.524,-0.784,-0.007,-92.341,-69.205,-4.376
25.534,-0.785,0.004,-92.341,-69.205,-4.377
25.544,-0.784,-0.001,-92.341,-69.205,-4.373
25.554,-0.784,-0.003,-92.341,-69.205,-4.376
25.564,-0.785,0.003,-92.341,-69.205,-4.377
25.574,-0.784,-0.000,-92.341,-69.205,-4.373
25.584,-0.785,0.001,-92.341,-69.205,-4.374
25.594,-0.785,0.004,-92.341,-69.205,-4.374
25.604,-0.784,0.001,-92.341,-69.205,-4.373
25.614,-0.784,-0.002,-92.341,-69.205,-4.374
25.624,-0.785,0.003,-92.341,-69.205,-4.375
25.634,-0.784,-0.002,-92.341,-69.205,-4.373
25.644,-0.784,-0.002,-92.341,-69.205,-4.376
25.654,-0.784,0.003,-92.341,-69.205,-4.374
25.664,-0.784,-0.004,-92.341,-69.205,-4.372
25.674,-0.785,-0.001,-92.341,-69.205,-4.377
25.684,-0.785,0.002,-92.341,-69.205,-4.374
25.694,-0.784,-0.003,-92.341,-69.205,-4.374
25.704,-0.785,0.001,-92.341,-69.205,-4.377
25.714,-0.785,0.002,-92.341,-69.205,-4.374
25.750,-0.784,-0.001,-92.341,-69.205,-4.375
25.760,-0.785,-0.001,-92.341,-69.205,-4.376
25.770,-0.785,0.002,-92.341,-69.205,-4.374
25.780,-0.784,-0.001,-92.341,-69.205,-4.375
25.790,-0.784,0.001,-92.341,-69.205,-4.373
25.800,-0.784,0.001,-92.341,-69.205,-4.372
25.810,-0.784,0.000,-92.341,-69.205,-4.374
25.820,-0.784,-0.000,-92.341,-69.205,-4.375
25.830,-0.784,-0.000,-92.341,-69.205,-4.373
25.840,-0.784,-0.001,-92.341,-69.205,-4.375
25.850,-0.784,-0.001,-92.341,-69.205,-4.374
25.860,-0.784,0.001,-92.341,-69.205,-4.372
25.870,-0.784,-0.001,-92.341,-69.205,-4.374
25.880,-0.784,-0.000,-92.341,-69.205,-4.375
25.890,-0.785,-0.000,-92.341,-69.205,-4.375
25.900,-0.785,-0.001,-92.341,-69.205,-4.376
25.910,-0.785,-0.001,-92.341,-69.205,-4.377
25.920,-0.785,0.001,-92.341,-69.205,-4.376
25.930,-0.784,0.001,-92.341,-69.205,-4.374
25.940,-0.784,-0.001,-92.341,-69.205,-4.375
25.950,-0.784,0.000,-92.341,-69.205,-4.375
25.960,-0.784,-0.001,-92.341,-69.205,-4.375
25.970,-0.784,-0.000,-92.341,-69.205,-4.375
25.980,-0.785,0.000,-92.341,-69.205,-4.375
25.990,-0.784,0.000,-92.341,-69.205,-4.375
26.000,-0.784,-0.001,-92.341,-69.205,-4.375
26.010,-0.784,-0.001,-92.341,-69.205,-4.374
26.020,-0.784,-0.002,-92.341,-69.205,-4.374
26.030,-0.784,0.001,-92.341,-69.205,-4.374
26.040,-0.784,0.001,-92.341,-69.205,-4.374
26.050,-0.784,-0.001,-92.341,-69.205,-4.374
26.060,-0.784,-0.001,-92.341,-69.205,-4.374
26.070,-0.784,0.001,-92.341,-69.205,-4.374
26.080,-0.784,-0.001,-92.341,-69.205,-4.374
26.090,-0.784,0.000,-92.341,-69.205,-4.374
26.100,-0.784,-0.001,-92.341,-69.205,-4.374
26.110,-0.784,-0.001,-92.341,-69.205,-4.375
26.120,-0.784,-0.001,-92.341,-69.205,-4.374
26.130,-0.784,0.001,-92.341,-69.205,-4.373
26.140,-0.784,-0.000,-92.341,-69.205,-4.374
26.150,-0.784,-0.000,-92.341,-69.205,-4.375
26.160,-0.784,-0.002,-92.341,-69.205,-4.373
26.170,-0.784,-0.001,-92.341,-69.205,-4.375
26.180,-0.784,0.001,-92.341,-69.205,-4.374
26.190,-0.784,0.000,-92.341,-69.205,-4.373
26.200,-0.784,-0.001,-92.341,-69.205,-4.373
26.226,-0.784,-0.001,-92.341,-69.205,-4.375
26.236,-0.784,-0.001,-92.341,-69.205,-4.375
26.246,-0.784,0.001,-92.341,-69.205,-4.374
26.256,-0.784,-0.000,-92.341,-69.205,-4.375
26.266,-0.784,0.000,-92.341,-69.205,-4.374
26.276,-0.785,0.000,-92.341,-69.205,-4.375
26.286,-0.785,0.000,-92.341,-69.205,-4.375
26.296,-0.785,-0.000,-92.341,-69.205,-4.375
26.306,-0.785,0.000,-92.341,-69.205,-4.374
26.316,-0.784,-0.001,-92.341,-69.205,-4.375
26.326,-0.784,0.001,-92.341,-69.205,-4.373
26.336,-0.784,0.000,-92.341,-69.205,-4.374
26.346,-0.784,0.000,-92.341,-69.205,-4.374
26.356,-0.784,-0.000,-92.341,-69.205,-4.375
26.366,-0.784,-0.001,-92.341,-69.205,-4.375
26.376,-0.784,-0.001,-92.341,-69.205,-4.375
26.386,-0.784,0.001,-92.341,-69.205,-4.373
26.396,-0.784,-0.000,-92.341,-69.205,-4.374
26.406,-0.784,-0.000,-92.341,-69.205,-4.375
26.416,-0.785,0.001,-92.341,-69.205,-4.374
26.426,-0.784,-0.000,-92.341,-69.205,-4.375
26.436,-0.784,0.000,-92.341,-69.205,-4.374
26.446,-0.784,-0.002,-92.341,-69.205,-4.376
26.456,-0.784,0.000,-92.341,-69.205,-4.375
26.466,-0.784,0.001,-92.341,-69.205,-4.373
26.476,-0.784,-0.001,-92.341,-69.205,-4.375
26.486,-0.784,0.001,-92.341,-69.205,-4.373
26.496,-0.779,-0.036,-92.341,-69.205,-4.392
26.506,-0.786,-0.021,-92.341,-69.205,-4.399
26.516,-0.791,0.075,-92.341,-69.205,-4.324
26.526,-0.780,-0.024,-92.341,-69.205,-4.385
26.536,-0.783,-0.018,-92.341,-69.205,-4.386
26.546,-0.786,0.018,-92.341,-69.205,-4.363
26.556,-0.785,0.021,-92.341,-69.205,-4.354
26.566,-0.782,-0.024,-92.341,-69.205,-4.388
26.576,-0.785,0.003,-92.341,-69.205,-4.373
26.586,-0.785,0.013,-92.341,-69.205,-4.364
26.596,-0.783,-0.003,-92.341,-69.205,-4.373
26.606,-0.784,-0.005,-92.341,-69.205,-4.378
26.616,-0.785,0.009,-92.341,-69.205,-4.368
26.626,-0.784,0.000,-92.341,-69.205,-4.372
26.636,-0.784,-0.006,-92.341,-69.205,-4.378
26.646,-0.785,0.003,-92.341,-69.205,-4.372
26.656,-0.784,-0.000,-92.341,-69.205,-4.373
26.666,-0.784,-0.005,-92.341,-69.205,-4.376
26.676,-0.784,-0.001,-92.341,-69.205,-4.375
26.686,-0.784,0.002,-92.341,-69.205,-4.373
26.722,-0.785,0.002,-92.341,-69.205,-4.372
26.732,-0.784,-0.006,-92.341,-69.205,-4.374
26.742,-0.785,-0.003,-92.341,-69.205,-4.379
26.752,-0.786,0.016,-92.341,-69.205,-4.368
26.762,-0.783,-0.004,-92.341,-69.205,-4.370
26.772,-0.784,-0.005,-92.341,-69.205,-4.379
26.782,-0.785,0.003,-92.341,-69.205,-4.376
26.792,-0.784,0.003,-92.341,-69.205,-4.371
26.802,-0.784,-0.001,-92.341,-69.205,-4.372
26.812,-0.784,-0.004,-92.341,-69.205,-4.375
26.822,-0.784,-0.000,-92.341,-69.205,-4.375
26.832,-0.784,-0.007,-92.341,-69.205,-4.373
26.842,-0.784,-0.006,-92.341,-69.205,-4.381
26.852,-0.785,0.002,-92.341,-69.205,-4.376
26.862,-0.784,-0.001,-92.341,-69.205,-4.373
26.872,-0.784,-0.005,-92.341,-69.205,-4.376
26.882,-0.785,0.004,-92.341,-69.205,-4.378
26.892,-0.785,0.002,-92.341,-69.205,-4.373
26.902,-0.785,-0.002,-92.341,-69.205,-4.375
26.912,-0.785,-0.002,-92.341,-69.205,-4.377
26.922,-0.785,0.001,-92.341,-69.205,-4.377
26.932,-0.784,-0.001,-92.341,-69.205,-4.373
26.942,-0.784,-0.000,-92.341,-69.205,-4.376
26.952,-0.785,0.005,-92.341,-69.205,-4.373
26.962,-0.785,0.007,-92.341,-69.205,-4.370
26.972,-0.784,0.004,-92.341,-69.205,-4.369
26.982,-0.783,-0.003,-92.341,-69.205,-4.373
26.992,-0.783,-0.003,-92.341,-69.205,-4.375
27.002,-0.784,-0.003,-92.341,-69.205,-4.378
27.012,-0.785,0.001,-92.341,-69.205,-4.378
27.022,-0.785,0.005,-92.341,-69.205,-4.372
27.032,-0.785,0.007,-92.341,-69.205,-4.370
27.042,-0.785,0.003,-92.341,-69.205,-4.371
27.052,-0.784,-0.012,-92.341,-69.205,-4.373
27.062,-0.784,-0.010,-92.341,-69.205,-4.387
27.072,-0.785,0.001,-92.341,-69.205,-4.379
27.082,-0.785,0.001,-92.341,-69.205,-4.375
27.092,-0.783,-0.019,-92.341,-69.205,-4.378
27.102,-0.784,-0.016,-92.341,-69.205,-4.389
27.112,-0.784,-0.013,-92.341,-69.205,-4.386
27.122,-0.784,-0.017,-92.341,-69.205,-4.388
27.132,-0.785,-0.012,-92.341,-69.205,-4.390
27.142,-0.786,-0.010,-92.341,-69.205,-4.387
27.152,-0.786,-0.008,-92.341,-69.205,-4.386
27.162,-0.788,0.019,-92.341,-69.205,-4.377
27.172,-0.785,-0.004,-92.341,-69.205,-4.374
27.182,-0.786,-0.002,